Data File Name,2100 expert_High Sensitivity DNA Assay_DE34904066_2015-05-22_14-28-17.xad
Data File Path,C:\Program Files (x86)\Agilent\2100 bioanalyzer\2100 expert\Data\2015-05-22
Date Created,"Friday, May 22, 2015 6:28:16 PM"
Date Last Modified,"Wednesday, May 27, 2015 3:00:00 PM"
Version Created,B.02.08.SI648
Version Last Modified,B.02.08.SI648
 
Assay Name,High Sensitivity DNA
Assay Path,C:\Program Files (x86)\Agilent\2100 bioanalyzer\2100 expert\assays\dsDNA
Assay Title,High Sensitivity DNA Assay
Assay Version,1.03
 
Number of Samples Run,11
 
Sample Name,7F #36 post amp 1:20
Number of Events,2121
 
Time,Value
32,0.8876495
32.05,0.8876495
32.1,0.8876495
32.15,0.8876495
32.2,0.8876495
32.25,0.8876495
32.3,0.8876495
32.35,0.8876495
32.4,0.8876495
32.45,0.8876495
32.5,0.8876495
32.55,0.8876495
32.6,0.8876495
32.65,0.800921
32.7,0.5492906
32.75,0.2024108
32.8,-0.106822
32.85,-0.2435143
32.9,-0.172482
32.95,-9.616497E-02
33,3.942871E-02
33.05,5.253115E-02
33.1,-8.714134E-02
33.15,-0.2789938
33.2,-0.3256309
33.25,-0.3586225
33.3,-0.3121109
33.35,-0.1489999
33.4,0.0588414
33.45,0.2167951
33.5,0.2552503
33.55,0.2928582
33.6,0.2217002
33.65,5.928368E-02
33.7,-9.846342E-02
33.75,-9.952193E-02
33.8,-0.155019
33.85,-0.1330069
33.9,-0.1626702
33.95,-8.768564E-02
34,-8.275644E-02
34.05,-7.132342E-02
34.1,-7.424369E-02
34.15,-4.928926E-02
34.2,-0.1352937
34.25,-0.3172629
34.3,-0.429094
34.35,-0.4373327
34.4,-0.3563084
34.45,-0.3889403
34.5,-0.1484004
34.55,-0.1866231
34.6,-0.3171472
34.65,-0.2978497
34.7,-0.157855
34.75,-5.706406E-02
34.8,-6.669214E-02
34.85,-8.281124E-02
34.9,-0.1266692
34.95,-0.2428672
35,-0.2173872
35.05,-0.1178408
35.1,-7.279158E-02
35.15,-3.519393E-03
35.2,8.026063E-03
35.25,1.568262E-02
35.3,-4.533651E-02
35.35,-0.1447303
35.4,-0.2415522
35.45,-0.257009
35.5,-0.251304
35.55,-9.598941E-02
35.6,-6.832662E-02
35.65,-0.1089687
35.7,-0.3982596
35.75,-0.5542753
35.8,-0.5312585
35.85,-0.4510372
35.9,-0.2888775
35.95,-0.1972448
36,-0.113423
36.05,-0.0286282
36.1,0.1930663
36.15,0.180282
36.2,9.542153E-02
36.25,2.385585E-02
36.3,-0.1168192
36.35,-0.1536974
36.4,-0.1849963
36.45,-0.3145521
36.5,-0.5258816
36.55,-0.619109
36.6,-0.5895384
36.65,-0.4956817
36.7,-0.424359
36.75,-0.3862658
36.8,-0.3947763
36.85,-0.5059705
36.9,-0.6168083
36.95,-0.6474838
37,-0.571356
37.05,-0.3923633
37.1,-0.2571325
37.15,-8.844291E-02
37.2,-6.630391E-02
37.25,-0.2044006
37.3,-0.3513499
37.35,-0.4310419
37.4,-0.415381
37.45,-0.4107211
37.5,-0.3389561
37.55,-0.3868267
37.6,-0.4452438
37.65,-0.5437288
37.7,-0.4553389
37.75,-0.4384442
37.8,-0.4889813
37.85,-0.545364
37.9,-0.5440164
37.95,-0.5574381
38,-0.5450668
38.05,-0.5316784
38.1,-0.54225
38.15,-0.6040117
38.2,-0.6412916
38.25,-0.5628819
38.3,-0.4933397
38.35,-0.3866698
38.4,-0.2943867
38.45,-0.2674085
38.5,-0.2506119
38.55,-0.2600429
38.6,-0.2617297
38.65,-0.1784499
38.7,-0.1296891
38.75,-0.1518711
38.8,-0.2828358
38.85,-0.3486493
38.9,-0.3588665
38.95,-0.4268982
39,-0.4246389
39.05,-0.4357852
39.1,-0.4458008
39.15,-0.4967278
39.2,-0.3555418
39.25,-0.2137341
39.3,-0.2520729
39.35,-0.3584824
39.4,-0.3386976
39.45,-0.4579552
39.5,-0.5635042
39.55,-0.5261171
39.6,-0.4559995
39.65,-0.4714544
39.7,-0.5110185
39.75,-0.417213
39.8,-0.4083529
39.85,-0.399731
39.9,-0.2543156
39.95,-0.14019
40,-0.2692649
40.05,-0.3710998
40.1,-0.4895186
40.15,-0.5786073
40.2,-0.6991379
40.25,-0.7475209
40.3,-0.7431826
40.35,-0.7622141
40.4,-0.7534865
40.45,-0.7557269
40.5,-0.740448
40.55,-0.8286135
40.6,-0.8502814
40.65,-0.8293547
40.7,-0.6220559
40.75,-0.6149713
40.8,-0.5479825
40.85,-0.5718862
40.9,-0.6284757
40.95,-0.6937556
41,-0.602763
41.05,-0.4327444
41.1,-0.2937692
41.15,-0.2678607
41.2,-0.2850361
41.25,-0.2622241
41.3,-0.2626361
41.35,-0.2665308
41.4,-0.3194997
41.45,-0.3835279
41.5,-0.5460564
41.55,-0.6143057
41.6,-0.5537396
41.65,-0.5861048
41.7,-0.7192459
41.75,-0.8207237
41.8,-0.8117166
41.85,-0.6960552
41.9,-0.5808184
41.95,-0.4287509
42,-0.2073192
42.05,-0.0499265
42.1,0.1343151
42.15,0.3848802
42.2,0.8085721
42.25,1.114043
42.3,1.421542
42.35,1.721259
42.4,2.002837
42.45,2.274035
42.5,3.022353
42.55,4.769409
42.6,8.379503
42.65,15.0473
42.7,26.2586
42.75,42.60614
42.8,63.48621
42.85,86.62334
42.9,108.1039
42.95,123.7103
43,129.3977
43.05,123.6964
43.1,107.8699
43.15,85.92072
43.2,62.38264
43.25,41.12543
43.3,24.7565
43.35,13.85818
43.4,7.498781
43.45,4.262244
43.5,2.838769
43.55,2.197498
43.6,1.875848
43.65,1.706808
43.7,1.55369
43.75,1.223236
43.8,0.9904332
43.85,0.7688473
43.9,0.575757
43.95,0.4519202
44,0.2893159
44.05,8.628929E-02
44.1,-0.1001801
44.15,-0.2041405
44.2,-0.1773111
44.25,-1.876419E-02
44.3,0.101312
44.35,0.1790857
44.4,0.1957302
44.45,0.1380392
44.5,5.293041E-02
44.55,0.1811633
44.6,0.1218248
44.65,0.1169341
44.7,-7.438365E-03
44.75,-6.531904E-02
44.8,-0.1487567
44.85,-0.1519149
44.9,-4.059596E-03
44.95,0.101165
45,0.1722794
45.05,0.1815484
45.1,0.1920461
45.15,0.107825
45.2,-1.530468E-02
45.25,-6.465857E-03
45.3,-7.539454E-02
45.35,-1.341005E-02
45.4,9.601989E-02
45.45,3.375021E-02
45.5,-7.817634E-02
45.55,-0.1268649
45.6,-9.391269E-02
45.65,-8.291283E-02
45.7,-7.840712E-02
45.75,-9.003793E-02
45.8,-0.1322355
45.85,-0.1532723
45.9,-0.2082919
45.95,-0.3233402
46,-0.5319104
46.05,-0.6022153
46.1,-0.6237947
46.15,-0.3582911
46.2,-0.3221078
46.25,-0.3989935
46.3,-0.5843639
46.35,-0.679816
46.4,-0.7875865
46.45,-0.8170298
46.5,-0.8077342
46.55,-0.824232
46.6,-0.8279514
46.65,-0.817681
46.7,-0.7301961
46.75,-0.6423565
46.8,-0.2902479
46.85,-0.0214585
46.9,0.245807
46.95,0.2064256
47,3.501251E-02
47.05,-0.1202437
47.1,-0.1559245
47.15,-0.1206388
47.2,-5.645834E-02
47.25,-6.971713E-03
47.3,-7.847004E-02
47.35,-0.1535436
47.4,-0.2030177
47.45,-0.3240369
47.5,-0.6156285
47.55,-0.7409574
47.6,-0.7214509
47.65,-0.7247657
47.7,-0.8431641
47.75,-0.8758682
47.8,-0.9680015
47.85,-0.951858
47.9,-0.8861113
47.95,-0.7211146
48,-0.612915
48.05,-0.5557756
48.1,-0.5922504
48.15,-0.589838
48.2,-0.5814947
48.25,-0.4807641
48.3,-0.3304014
48.35,-0.2628109
48.4,-0.2372192
48.45,-0.4120056
48.5,-0.5235638
48.55,-0.609674
48.6,-0.6451296
48.65,-0.6876069
48.7,-0.7843791
48.75,-0.8114043
48.8,-0.7759914
48.85,-0.8422498
48.9,-0.913694
48.95,-0.9547263
49,-1.050828
49.05,-1.110694
49.1,-1.09917
49.15,-0.8075678
49.2,-0.7434255
49.25,-0.5517725
49.3,-0.5148915
49.35,-0.5381473
49.4,-0.606766
49.45,-0.697192
49.5,-0.6919294
49.55,-0.6535967
49.6,-0.6701847
49.65,-0.7080423
49.7,-0.6378213
49.75,-0.622938
49.8,-0.7277471
49.85,-0.7999104
49.9,-0.8048903
49.95,-0.9691337
50,-1.032941
50.05,-1.135035
50.1,-1.167874
50.15,-1.191041
50.2,-1.169407
50.25,-1.068704
50.3,-0.982996
50.35,-0.9705114
50.4,-0.9940169
50.45,-0.9042607
50.5,-0.8286979
50.55,-0.6907296
50.6,-0.6487203
50.65,-0.6232083
50.7,-0.6584747
50.75,-0.6567227
50.8,-0.6209101
50.85,-0.5006227
50.9,-0.4721718
50.95,-0.5486158
51,-0.6563666
51.05,-0.7049083
51.1,-0.7274932
51.15,-0.75617
51.2,-0.8559722
51.25,-0.9436386
51.3,-1.039955
51.35,-1.079776
51.4,-1.057795
51.45,-0.9359891
51.5,-0.8476696
51.55,-0.8855485
51.6,-0.6441456
51.65,-0.4372306
51.7,-0.3098822
51.75,-0.1505008
51.8,-2.339048E-02
51.85,-2.048462E-04
51.9,6.902429E-02
51.95,0.3550772
52,0.5632945
52.05,0.8815284
52.1,1.155192
52.15,1.322204
52.2,1.296103
52.25,1.27837
52.3,1.301959
52.35,1.409544
52.4,1.67974
52.45,2.241932
52.5,3.471219
52.55,5.723004
52.6,8.958245
52.65,12.90489
52.7,17.10715
52.75,20.94169
52.8,23.27599
52.85,23.38947
52.9,21.35606
52.95,17.41795
53,12.68623
53.05,8.205868
53.1,4.904649
53.15,2.808099
53.2,1.497448
53.25,0.8051059
53.3,0.3470654
53.35,-2.792446E-02
53.4,-0.3333539
53.45,-0.4912388
53.5,-0.5583116
53.55,-0.5801755
53.6,-0.5947251
53.65,-0.6224208
53.7,-0.6718284
53.75,-0.7923849
53.8,-0.9360319
53.85,-1.039512
53.9,-0.9671733
53.95,-0.8312166
54,-0.7546926
54.05,-0.6977597
54.1,-0.6190485
54.15,-0.5094905
54.2,-0.3711224
54.25,-0.1871112
54.3,-0.1791376
54.35,-0.3396672
54.4,-0.4255412
54.45,-0.3840843
54.5,-0.382171
54.55,-0.4873121
54.6,-0.4788566
54.65,-0.6234118
54.7,-0.7301392
54.75,-0.7580838
54.8,-0.7261668
54.85,-0.7160667
54.9,-0.684288
54.95,-0.6865313
55,-0.668201
55.05,-0.4838146
55.1,-0.4077203
55.15,-0.3603616
55.2,-0.4497761
55.25,-0.5342573
55.3,-0.6552216
55.35,-0.6122926
55.4,-0.5556909
55.45,-0.4751463
55.5,-0.4328999
55.55,-0.2705668
55.6,-0.1395834
55.65,-6.700107E-02
55.7,-4.488689E-02
55.75,-0.1693024
55.8,-0.3792638
55.85,-0.5377856
55.9,-0.5758327
55.95,-0.5319631
56,-0.5672687
56.05,-0.6236632
56.1,-0.6648717
56.15,-0.8174683
56.2,-0.8057585
56.25,-0.7859647
56.3,-0.6814247
56.35,-0.6709168
56.4,-0.6105149
56.45,-0.4736299
56.5,-0.4062694
56.55,-0.3898436
56.6,-0.4918683
56.65,-0.602428
56.7,-0.649964
56.75,-0.529569
56.8,-0.4093219
56.85,-0.2394553
56.9,-0.253226
56.95,-0.2611067
57,-0.4428198
57.05,-0.5288168
57.1,-0.6286768
57.15,-0.7296333
57.2,-0.7509629
57.25,-0.6549926
57.3,-0.6008621
57.35,-0.655697
57.4,-0.709655
57.45,-0.6996932
57.5,-0.7968587
57.55,-0.7850817
57.6,-0.6247778
57.65,-0.5266257
57.7,-0.5019054
57.75,-0.4069881
57.8,-0.279143
57.85,-0.262709
57.9,-0.2135665
57.95,-0.1173
58,-0.1059494
58.05,-9.115916E-02
58.1,-3.825445E-02
58.15,-3.773841E-02
58.2,-0.114159
58.25,-0.1334294
58.3,-0.2744622
58.35,-0.2271979
58.4,-0.1290145
58.45,-8.772416E-02
58.5,-0.1542675
58.55,-0.2397066
58.6,-0.2987481
58.65,-0.2991163
58.7,-0.2069476
58.75,-0.129331
58.8,-0.2363258
58.85,-0.3591463
58.9,-0.3226346
58.95,-0.2143635
59,-9.676577E-02
59.05,3.996392E-02
59.1,3.646866E-02
59.15,-4.539184E-02
59.2,-0.1416284
59.25,-0.1015691
59.3,4.450705E-02
59.35,8.252206E-02
59.4,6.677979E-02
59.45,7.742677E-02
59.5,-2.131109E-02
59.55,-6.590326E-02
59.6,-2.033322E-02
59.65,-2.770962E-02
59.7,-8.655869E-02
59.75,-0.1653554
59.8,-0.1891798
59.85,-0.1801968
59.9,-0.195582
59.95,-0.1094908
60,-0.3244223
60.05,-0.4527175
60.1,-0.5010574
60.15,-0.4219776
60.2,-0.2486569
60.25,2.347343E-02
60.3,0.1618794
60.35,0.1096502
60.4,-5.657667E-03
60.45,-6.997649E-02
60.5,9.549479E-03
60.55,0.1318192
60.6,0.2832828
60.65,0.2810009
60.7,0.222522
60.75,0.1999057
60.8,0.2044997
60.85,0.1244811
60.9,4.976091E-02
60.95,-3.872538E-02
61,-4.856792E-02
61.05,8.687078E-02
61.1,0.2591464
61.15,0.3694666
61.2,0.4313442
61.25,0.420896
61.3,0.3108937
61.35,0.3360745
61.4,0.4058428
61.45,0.6658968
61.5,0.6096582
61.55,0.5910727
61.6,0.4692926
61.65,0.3258013
61.7,0.3081018
61.75,0.4791988
61.8,0.6373287
61.85,0.6845242
61.9,0.6340138
61.95,0.5152531
62,0.4074808
62.05,0.2994185
62.1,0.2881071
62.15,0.276544
62.2,0.2862515
62.25,0.2993668
62.3,0.2377216
62.35,0.2511936
62.4,0.3754777
62.45,0.5457196
62.5,0.8486257
62.55,0.9403548
62.6,0.9265775
62.65,0.8053361
62.7,0.66723
62.75,0.5664443
62.8,0.523584
62.85,0.5876212
62.9,0.5975233
62.95,0.669156
63,0.7002716
63.05,0.7677976
63.1,0.8024566
63.15,0.8305458
63.2,0.879256
63.25,0.9253063
63.3,0.8605878
63.35,0.7455726
63.4,0.6517484
63.45,0.6625221
63.5,0.6435993
63.55,0.7071439
63.6,0.7539701
63.65,0.6944453
63.7,0.6808105
63.75,0.6652947
63.8,0.9337856
63.85,1.086007
63.9,1.154618
63.95,1.108979
64,0.896695
64.05,0.7994753
64.1,0.9616854
64.15,1.155542
64.2,1.158479
64.25,1.109078
64.3,1.010506
64.35,0.8784622
64.4,0.8818958
64.45,0.9827403
64.5,0.8715227
64.55,0.6588511
64.6,0.6686294
64.65,0.6876608
64.7,0.5723456
64.75,0.557099
64.8,0.4729405
64.85,0.3507362
64.9,0.3639367
64.95,0.5073759
65,0.6823068
65.05,0.8571948
65.1,0.980284
65.15,0.9258683
65.2,0.8836999
65.25,0.8748543
65.3,0.817057
65.35,0.8587083
65.4,0.9087318
65.45,0.9064128
65.5,0.8474215
65.55,0.9081663
65.6,0.9239781
65.65,0.9185054
65.7,1.026489
65.75,1.015316
65.8,0.8972204
65.85,0.8803167
65.9,0.7945983
65.95,0.4993667
66,0.3050796
66.05,0.4801827
66.1,0.5171751
66.15,0.595669
66.2,0.5674949
66.25,0.7007263
66.3,0.7607625
66.35,0.8563018
66.4,0.9463843
66.45,0.9723502
66.5,0.8865983
66.55,0.8215213
66.6,0.8621399
66.65,0.8384746
66.7,0.7012132
66.75,0.6177031
66.8,0.5339358
66.85,0.4997139
66.9,0.6211267
66.95,0.6613314
67,0.6843197
67.05,0.5510299
67.1,0.5613385
67.15,0.3916643
67.2,0.2952845
67.25,0.1842763
67.3,3.427286E-02
67.35,-8.025416E-03
67.4,-1.355744E-02
67.45,0.1235089
67.5,0.1821623
67.55,0.4539351
67.6,0.5147553
67.65,0.5242659
67.7,0.5705952
67.75,0.6073732
67.8,0.55906
67.85,0.4385904
67.9,0.3405193
67.95,0.3189575
68,0.3410721
68.05,0.3942662
68.1,0.5192463
68.15,0.6028563
68.2,0.4778402
68.25,0.2220255
68.3,0.0353966
68.35,-0.1214806
68.4,-0.2079323
68.45,-0.2448934
68.5,-0.2001448
68.55,-0.20966
68.6,-5.870698E-02
68.65,-2.871694E-02
68.7,1.154652E-02
68.75,3.317077E-02
68.8,2.975193E-02
68.85,2.501316E-02
68.9,6.131648E-02
68.95,0.1645368
69,8.264318E-02
69.05,9.052075E-02
69.1,6.240471E-02
69.15,5.726412E-02
69.2,6.021915E-04
69.25,-4.501922E-02
69.3,-4.713996E-02
69.35,-9.679266E-02
69.4,-0.1850807
69.45,-0.2341808
69.5,-0.3085807
69.55,-0.4401694
69.6,-0.5615586
69.65,-0.6370448
69.7,-0.6578364
69.75,-0.6762018
69.8,-0.5570183
69.85,-0.4077956
69.9,-0.3433918
69.95,-0.4030743
70,-0.2949184
70.05,-0.2543463
70.1,-0.1861221
70.15,-0.2653383
70.2,-0.2581768
70.25,-0.4029835
70.3,-0.4254375
70.35,-0.3291253
70.4,-0.2637461
70.45,-0.2644942
70.5,-0.4175228
70.55,-0.5249619
70.6,-0.6240188
70.65,-0.6168079
70.7,-0.7543252
70.75,-0.8347394
70.8,-0.8936967
70.85,-0.9155549
70.9,-1.048825
70.95,-0.8914558
71,-0.712481
71.05,-0.6529709
71.1,-0.5562418
71.15,-0.5218045
71.2,-0.5608481
71.25,-0.6347442
71.3,-0.5739805
71.35,-0.5749713
71.4,-0.6815205
71.45,-0.7269782
71.5,-0.6651865
71.55,-0.6792604
71.6,-0.6756648
71.65,-0.8561864
71.7,-1.006687
71.75,-1.115325
71.8,-1.126418
71.85,-1.077626
71.9,-1.044305
71.95,-1.109002
72,-1.240411
72.05,-1.261254
72.1,-1.401341
72.15,-1.451221
72.2,-1.408529
72.25,-1.230805
72.3,-1.139671
72.35,-1.027684
72.4,-0.9359
72.45,-1.012985
72.5,-1.014339
72.55,-0.9091639
72.6,-0.8390556
72.65,-0.8251318
72.7,-0.9090082
72.75,-1.025413
72.8,-1.144071
72.85,-1.205584
72.9,-1.301332
72.95,-1.26826
73,-1.137161
73.05,-1.144011
73.1,-1.187168
73.15,-1.28512
73.2,-1.412615
73.25,-1.619151
73.3,-1.64885
73.35,-1.601454
73.4,-1.526636
73.45,-1.450705
73.5,-1.365045
73.55,-1.303017
73.6,-1.442731
73.65,-1.457968
73.7,-1.509173
73.75,-1.403744
73.8,-1.35618
73.85,-1.380466
73.9,-1.442468
73.95,-1.502654
74,-1.594671
74.05,-1.624053
74.1,-1.614673
74.15,-1.586205
74.2,-1.691481
74.25,-1.771947
74.3,-1.827932
74.35,-1.95441
74.4,-2.102954
74.45,-2.179164
74.5,-2.157875
74.55,-2.158004
74.6,-1.863719
74.65,-1.678361
74.7,-1.738606
74.75,-1.819088
74.8,-1.850188
74.85,-1.687312
74.9,-1.504931
74.95,-1.434996
75,-1.471224
75.05,-1.516617
75.1,-1.50168
75.15,-1.444172
75.2,-1.479217
75.25,-1.638977
75.3,-1.94696
75.35,-2.13087
75.4,-2.193715
75.45,-2.205127
75.5,-2.156032
75.55,-2.135129
75.6,-2.177299
75.65,-2.156927
75.7,-2.102709
75.75,-2.022863
75.8,-2.067066
75.85,-2.174328
75.9,-2.282873
75.95,-2.38251
76,-2.265896
76.05,-2.151102
76.1,-1.941553
76.15,-2.068998
76.2,-2.130294
76.25,-2.181819
76.3,-2.30249
76.35,-2.379232
76.4,-2.372035
76.45,-2.484646
76.5,-2.563217
76.55,-2.491924
76.6,-2.31392
76.65,-2.207396
76.7,-2.224877
76.75,-2.284314
76.8,-2.629167
76.85,-2.731416
76.9,-2.819072
76.95,-2.665867
77,-2.445881
77.05,-2.391232
77.1,-2.39818
77.15,-2.407405
77.2,-2.491145
77.25,-2.556569
77.3,-2.465057
77.35,-2.347496
77.4,-2.404139
77.45,-2.442945
77.5,-2.371166
77.55,-2.376014
77.6,-2.313205
77.65,-2.257626
77.7,-2.060316
77.75,-2.057197
77.8,-2.112978
77.85,-2.292299
77.9,-2.407905
77.95,-2.470605
78,-2.582855
78.05,-2.57741
78.1,-2.590857
78.15,-2.745169
78.2,-2.81373
78.25,-2.794801
78.3,-2.748927
78.35,-2.818214
78.4,-2.774335
78.45,-2.564799
78.5,-2.462934
78.55,-2.362012
78.6,-2.291113
78.65,-2.366619
78.7,-2.511918
78.75,-2.672639
78.8,-2.686017
78.85,-2.702225
78.9,-2.714252
78.95,-2.698405
79,-2.675831
79.05,-2.803229
79.1,-2.759019
79.15,-2.801487
79.2,-2.698026
79.25,-2.774146
79.3,-2.787946
79.35,-2.935441
79.4,-2.939605
79.45,-2.960464
79.5,-2.982961
79.55,-2.924937
79.6,-2.819644
79.65,-2.741892
79.7,-2.827842
79.75,-2.876216
79.8,-2.906911
79.85,-3.007843
79.9,-2.912801
79.95,-2.813021
80,-2.68431
80.05,-2.752054
80.1,-3.013574
80.15,-3.155252
80.2,-3.303823
80.25,-3.261909
80.3,-3.055086
80.35,-2.825999
80.4,-2.776662
80.45,-2.855968
80.5,-2.846543
80.55,-2.949408
80.6,-2.864799
80.65,-2.947167
80.7,-2.84218
80.75,-2.840585
80.8,-2.778119
80.85,-2.752104
80.9,-2.739161
80.95,-2.785361
81,-2.780775
81.05,-2.845969
81.1,-2.867063
81.15,-2.932231
81.2,-2.942824
81.25,-2.881932
81.3,-2.694993
81.35,-2.496651
81.4,-2.7391
81.45,-2.96159
81.5,-3.092298
81.55,-3.18867
81.6,-3.172693
81.65,-3.035785
81.7,-2.987281
81.75,-3.101317
81.8,-3.151509
81.85,-3.093932
81.9,-3.137211
81.95,-3.199365
82,-3.146292
82.05,-3.068167
82.1,-2.854183
82.15,-2.720874
82.2,-2.726514
82.25,-2.890086
82.3,-3.098431
82.35,-3.124821
82.4,-3.021845
82.45,-2.854197
82.5,-2.666873
82.55,-2.687541
82.6,-2.764406
82.65,-2.93914
82.7,-3.12637
82.75,-3.257045
82.8,-3.322574
82.85,-3.352691
82.9,-3.399829
82.95,-3.245974
83,-3.206711
83.05,-3.135523
83.1,-3.190634
83.15,-3.144936
83.2,-3.145231
83.25,-3.123897
83.3,-3.081433
83.35,-2.993434
83.4,-2.98809
83.45,-2.990191
83.5,-2.9537
83.55,-2.906828
83.6,-2.813523
83.65,-2.75579
83.7,-2.776789
83.75,-2.977135
83.8,-3.112147
83.85,-3.154885
83.9,-3.33357
83.95,-3.450823
84,-3.519509
84.05,-3.491864
84.1,-3.413033
84.15,-3.340625
84.2,-3.33176
84.25,-3.414813
84.3,-3.443439
84.35,-3.331886
84.4,-3.254206
84.45,-3.231692
84.5,-3.17464
84.55,-3.121204
84.6,-3.087029
84.65,-3.136637
84.7,-3.211187
84.75,-3.270483
84.8,-3.279608
84.85,-3.187531
84.9,-3.162587
84.95,-3.196985
85,-3.298441
85.05,-3.415876
85.1,-3.348849
85.15,-3.227749
85.2,-3.028436
85.25,-3.110065
85.3,-3.274853
85.35,-3.46274
85.4,-3.528644
85.45,-3.435727
85.5,-3.363043
85.55,-3.294362
85.6,-3.249379
85.65,-3.241123
85.7,-3.169254
85.75,-3.134639
85.8,-3.190579
85.85,-3.258106
85.9,-3.274086
85.95,-3.201591
86,-3.09464
86.05,-2.983451
86.1,-3.032194
86.15,-3.202042
86.2,-3.459045
86.25,-3.656205
86.3,-3.669075
86.35,-3.500963
86.4,-3.367357
86.45,-3.22327
86.5,-3.105237
86.55,-3.201854
86.6,-3.367617
86.65,-3.545316
86.7,-3.829248
86.75,-3.958374
86.8,-3.775915
86.85,-3.536381
86.9,-3.359422
86.95,-3.226858
87,-3.236835
87.05,-3.431524
87.1,-3.553808
87.15,-3.55327
87.2,-3.584852
87.25,-3.533861
87.3,-3.430844
87.35,-3.434337
87.4,-3.520628
87.45,-3.586169
87.5,-3.705724
87.55,-3.791976
87.6,-3.795166
87.65,-3.659979
87.7,-3.733402
87.75,-3.756312
87.8,-3.733164
87.85,-3.615496
87.9,-3.468184
87.95,-3.320744
88,-3.283936
88.05,-3.315887
88.1,-3.323782
88.15,-3.336605
88.2,-3.385041
88.25,-3.415933
88.3,-3.429042
88.35,-3.469548
88.4,-3.390091
88.45,-3.304592
88.5,-3.262924
88.55,-3.340718
88.6,-3.494208
88.65,-3.673284
88.7,-3.794963
88.75,-3.816602
88.8,-3.767774
88.85,-3.726783
88.9,-3.763726
88.95,-3.879414
89,-3.995623
89.05,-4.08798
89.1,-4.002913
89.15,-3.821074
89.2,-3.576425
89.25,-3.505378
89.3,-3.571403
89.35,-3.562484
89.4,-3.526412
89.45,-3.396444
89.5,-3.275424
89.55,-3.297101
89.6,-3.393457
89.65,-3.51221
89.7,-3.48342
89.75,-3.476216
89.8,-3.492483
89.85,-3.512315
89.9,-3.554225
89.95,-3.589031
90,-3.579245
90.05,-3.722721
90.1,-3.742168
90.15,-3.901996
90.2,-3.993212
90.25,-3.995694
90.3,-3.957665
90.35,-3.930813
90.4,-3.927314
90.45,-3.849351
90.5,-3.817729
90.55,-3.818197
90.6,-3.814516
90.65,-3.755538
90.7,-3.636874
90.75,-3.604179
90.8,-3.659986
90.85,-3.663605
90.9,-3.720114
90.95,-3.841184
91,-3.91827
91.05,-3.93507
91.1,-3.886384
91.15,-3.801789
91.2,-3.781028
91.25,-3.847892
91.3,-3.978486
91.35,-4.056172
91.4,-3.996374
91.45,-3.938487
91.5,-3.755255
91.55,-3.690961
91.6,-3.63219
91.65,-3.540834
91.7,-3.51292
91.75,-3.558197
91.8,-3.616824
91.85,-3.70741
91.9,-3.761666
91.95,-3.783989
92,-3.786003
92.05,-3.840957
92.1,-3.954685
92.15,-3.967028
92.2,-3.998531
92.25,-3.935142
92.3,-3.827376
92.35,-3.829409
92.4,-3.894055
92.45,-4.000213
92.5,-3.988255
92.55,-3.955585
92.6,-3.972517
92.65,-4.042804
92.7,-4.070116
92.75,-4.032193
92.8,-4.041565
92.85,-4.082592
92.9,-4.037641
92.95,-4.018067
93,-4.065491
93.05,-3.993703
93.1,-3.920662
93.15,-3.963664
93.2,-3.962771
93.25,-3.844319
93.3,-3.712074
93.35,-3.694988
93.4,-3.680112
93.45,-3.677712
93.5,-3.731587
93.55,-3.852974
93.6,-3.979971
93.65,-4.058247
93.7,-4.006244
93.75,-4.015103
93.8,-3.868464
93.85,-3.746117
93.9,-3.835726
93.95,-3.965245
94,-4.029052
94.05,-4.045917
94.1,-4.010431
94.15,-3.906063
94.2,-3.867403
94.25,-3.935472
94.3,-3.834271
94.35,-3.725213
94.4,-3.611831
94.45,-3.69218
94.5,-3.736636
94.55,-3.934804
94.6,-3.97134
94.65,-3.97197
94.7,-3.879709
94.75,-3.859547
94.8,-3.791314
94.85,-3.76294
94.9,-3.823663
94.95,-3.954182
95,-4.105134
95.05,-4.256341
95.1,-4.34149
95.15,-4.366378
95.2,-4.419201
95.25,-4.183423
95.3,-3.983312
95.35,-3.840304
95.4,-3.801015
95.45,-3.819397
95.5,-3.939867
95.55,-4.070866
95.6,-4.072373
95.65,-3.997179
95.7,-4.035083
95.75,-3.996701
95.8,-3.978124
95.85,-4.01779
95.9,-4.064049
95.95,-4.114417
96,-4.11001
96.05,-4.226535
96.1,-4.212157
96.15,-4.214125
96.2,-4.27
96.25,-4.330158
96.3,-4.404069
96.35,-4.49066
96.4,-4.56303
96.45,-4.476923
96.5,-4.270624
96.55,-4.089818
96.6,-3.956015
96.65,-3.863503
96.7,-3.773799
96.75,-3.921124
96.8,-4.042974
96.85,-3.95424
96.9,-4.010426
96.95,-3.970728
97,-3.964727
97.05,-3.873501
97.1,-3.895792
97.15,-3.908116
97.2,-3.945286
97.25,-4.021324
97.3,-4.145457
97.35,-4.249844
97.4,-4.257126
97.45,-4.303134
97.5,-4.294991
97.55,-4.440186
97.6,-4.312234
97.65,-4.290334
97.7,-4.327126
97.75,-4.214993
97.8,-4.053342
97.85,-4.032635
97.9,-3.998698
97.95,-3.992467
98,-3.977516
98.05,-3.979586
98.1,-3.931938
98.15,-3.845056
98.2,-3.877083
98.25,-3.836877
98.3,-3.96834
98.35,-4.051326
98.4,-4.149995
98.45,-4.309954
98.5,-4.330688
98.55,-4.249513
98.6,-4.330198
98.65,-4.392577
98.7,-4.381874
98.75,-4.337747
98.8,-4.31481
98.85,-4.195174
98.9,-4.148597
98.95,-4.155551
99,-4.18655
99.05,-4.159978
99.1,-4.162497
99.15,-4.219532
99.2,-4.182828
99.25,-4.178067
99.3,-4.135982
99.35,-4.139672
99.4,-4.053062
99.45,-3.981719
99.5,-4.005279
99.55,-4.005065
99.6,-4.055921
99.65,-4.144499
99.7,-4.260969
99.75,-4.29962
99.8,-4.389197
99.85,-4.356419
99.9,-4.267295
99.95,-4.276696
100,-4.328628
100.05,-4.291095
100.1,-4.27341
100.15,-4.032486
100.2,-3.80313
100.25,-3.659193
100.3,-3.684847
100.35,-3.816684
100.4,-3.980831
100.45,-4.122197
100.5,-4.141264
100.55,-4.140189
100.6,-4.178857
100.65,-4.227569
100.7,-4.189501
100.75,-4.127673
100.8,-4.011734
100.85,-4.040346
100.9,-4.147295
100.95,-4.276048
101,-4.361814
101.05,-4.40074
101.1,-4.422439
101.15,-4.412483
101.2,-4.438955
101.25,-4.436638
101.3,-4.369429
101.35,-4.139585
101.4,-3.9716
101.45,-3.826281
101.5,-3.937715
101.55,-3.97473
101.6,-4.165593
101.65,-4.089854
101.7,-3.997956
101.75,-3.902093
101.8,-3.916628
101.85,-3.921001
101.9,-3.944216
101.95,-4.027776
102,-4.053113
102.05,-4.122891
102.1,-4.147962
102.15,-4.260302
102.2,-4.131182
102.25,-4.176107
102.3,-4.152287
102.35,-4.100292
102.4,-4.054187
102.45,-4.059223
102.5,-4.086257
102.55,-3.983662
102.6,-4.01499
102.65,-4.041375
102.7,-3.927585
102.75,-3.821645
102.8,-3.79407
102.85,-3.839236
102.9,-3.877319
102.95,-4.077026
103,-4.137863
103.05,-3.851349
103.1,-3.595068
103.15,-3.529117
103.2,-3.664869
103.25,-3.965215
103.3,-4.246893
103.35,-4.397537
103.4,-4.233771
103.45,-4.057683
103.5,-4.089564
103.55,-4.227139
103.6,-4.30837
103.65,-4.285776
103.7,-4.209343
103.75,-3.920326
103.8,-3.762976
103.85,-3.901338
103.9,-4.078371
103.95,-4.028586
104,-3.86178
104.05,-3.744911
104.1,-3.686856
104.15,-3.77241
104.2,-3.885845
104.25,-3.971241
104.3,-3.94205
104.35,-3.901378
104.4,-3.920066
104.45,-3.969374
104.5,-4.010191
104.55,-3.935477
104.6,-3.974366
104.65,-3.781056
104.7,-3.717706
104.75,-3.766886
104.8,-3.954017
104.85,-4.149774
104.9,-4.207517
104.95,-4.188607
105,-4.084209
105.05,-4.074501
105.1,-4.126426
105.15,-4.013944
105.2,-3.822461
105.25,-3.614451
105.3,-3.464096
105.35,-3.714073
105.4,-3.857702
105.45,-3.996927
105.5,-3.948139
105.55,-3.873859
105.6,-3.767125
105.65,-3.506258
105.7,-3.305803
105.75,-3.305397
105.8,-3.484273
105.85,-3.614772
105.9,-3.572945
105.95,-3.285009
106,-3.070356
106.05,-3.029559
106.1,-3.385399
106.15,-3.531053
106.2,-3.352893
106.25,-3.1961
106.3,-3.206128
106.35,-3.258017
106.4,-3.444906
106.45,-3.548893
106.5,-3.474957
106.55,-3.411847
106.6,-3.591451
106.65,-3.820301
106.7,-3.489621
106.75,-3.360744
106.8,-3.4457
106.85,-3.637037
106.9,-4.026918
106.95,-4.5159
107,-4.607693
107.05,-4.392318
107.1,-4.145329
107.15,-4.09905
107.2,-3.995177
107.25,-4.045936
107.3,-4.126726
107.35,-3.973901
107.4,-3.68542
107.45,-3.341985
107.5,-3.033432
107.55,-2.674431
107.6,-2.764808
107.65,-2.999901
107.7,-3.14622
107.75,-3.2636
107.8,-3.626565
107.85,-3.720764
107.9,-3.608372
107.95,-3.417559
108,-3.246399
108.05,-3.227586
108.1,-3.329034
108.15,-3.250316
108.2,-3.003141
108.25,-3.049592
108.3,-3.285535
108.35,-3.752805
108.4,-4.248481
108.45,-4.425325
108.5,-4.076592
108.55,-3.604923
108.6,-3.399491
108.65,-3.394026
108.7,-3.465411
108.75,-3.506058
108.8,-3.542409
108.85,-3.416166
108.9,-3.190879
108.95,-3.14067
109,-3.279758
109.05,-3.182568
109.1,-2.94454
109.15,-2.857702
109.2,-2.77704
109.25,-2.548668
109.3,-2.386496
109.35,-2.423555
109.4,-2.415453
109.45,-2.529967
109.5,-2.808608
109.55,-2.956624
109.6,-2.7342
109.65,-2.50805
109.7,-2.705411
109.75,-3.063205
109.8,-3.274912
109.85,-3.315813
109.9,-3.230239
109.95,-2.762163
110,-2.455389
110.05,-2.488609
110.1,-2.479201
110.15,-2.395937
110.2,-2.412851
110.25,-2.695981
110.3,-2.939981
110.35,-3.022298
110.4,-2.839283
110.45,-2.559312
110.5,-2.479255
110.55,-2.422142
110.6,-2.889976
110.65,-3.191177
110.7,-3.133873
110.75,-2.771096
110.8,-2.673422
110.85,-2.811686
110.9,-2.762799
110.95,-2.673115
111,-2.634717
111.05,-2.407537
111.1,-2.451921
111.15,-2.910513
111.2,-3.539058
111.25,-3.946694
111.3,-4.093049
111.35,-4.091319
111.4,-3.638268
111.45,-3.245405
111.5,-3.020319
111.55,-2.604826
111.6,-2.061638
111.65,-2.223997
111.7,-2.623302
111.75,-2.713266
111.8,-2.239088
111.85,-1.640104
111.9,-1.042324
111.95,-0.7738826
112,-1.211946
112.05,-0.5915971
112.1,1.917515
112.15,7.129021
112.2,13.42133
112.25,21.3325
112.3,29.30868
112.35,36.63947
112.4,45.29421
112.45,59.60257
112.5,77.75214
112.55,96.79133
112.6,117.06
112.65,137.0823
112.7,151.7079
112.75,162.1807
112.8,171.516
112.85,176.6016
112.9,178.3897
112.95,184.2207
113,187.2637
113.05,182.1806
113.1,172.9805
113.15,163.8034
113.2,150.5105
113.25,136.6895
113.3,125.0285
113.35,112.5985
113.4,100.7938
113.45,92.99608
113.5,88.92567
113.55,84.2219
113.6,78.91381
113.65,72.41467
113.7,61.03557
113.75,51.68137
113.8,45.57268
113.85,38.11272
113.9,32.20258
113.95,25.97017
114,20.84097
114.05,16.65275
114.1,15.33317
114.15,16.03895
114.2,15.00986
114.25,13.27295
114.3,10.4107
114.35,7.284974
114.4,5.004939
114.45,4.403134
114.5,4.275166
114.55,4.387492
114.6,4.677423
114.65,4.357996
114.7,4.244344
114.75,4.306513
114.8,3.745635
114.85,2.738018
114.9,1.5017
114.95,0.2653056
115,-0.5921203
115.05,-0.540096
115.1,-0.1164698
115.15,0.1514807
115.2,0.3406097
115.25,-4.728378E-02
115.3,-0.8181925
115.35,-1.223623
115.4,-1.049166
115.45,-0.6458375
115.5,0.3375134
115.55,1.103183
115.6,1.319946
115.65,1.179711
115.7,1.286837
115.75,1.185821
115.8,0.7341533
115.85,-0.282
115.9,-1.353703
115.95,-1.608277
116,-1.187822
116.05,-0.6456865
116.1,-0.9768479
116.15,-1.259821
116.2,-2.023522
116.25,-2.473181
116.3,-1.783959
116.35,-0.9805782
116.4,-0.9174899
116.45,-1.407965
116.5,-2.158267
116.55,-3.23064
116.6,-3.973424
116.65,-3.654332
116.7,-3.233517
116.75,-3.25433
116.8,-3.522841
116.85,-3.969109
116.9,-4.017315
116.95,-4.033586
117,-3.828616
117.05,-3.618584
117.1,-3.746131
117.15,-4.050993
117.2,-4.381921
117.25,-4.594106
117.3,-4.636509
117.35,-4.478845
117.4,-4.259483
117.45,-4.221994
117.5,-4.226885
117.55,-4.326432
117.6,-4.528072
117.65,-4.761044
117.7,-4.382965
117.75,-4.129175
117.8,-4.004894
117.85,-4.024083
117.9,-4.295865
117.95,-4.726654
118,-5.001167
118.05,-4.941566
118.1,-4.927214
118.15,-4.904488
118.2,-4.850894
118.25,-4.844544
118.3,-4.819082
118.35,-4.822563
118.4,-4.685313
118.45,-4.555285
118.5,-4.465089
118.55,-4.352004
118.6,-4.432504
118.65,-4.547058
118.7,-4.497719
118.75,-4.280747
118.8,-4.054911
118.85,-3.951756
118.9,-4.131633
118.95,-4.39765
119,-4.670044
119.05,-4.917818
119.1,-5.048985
119.15,-5.254916
119.2,-5.058981
119.25,-5.162082
119.3,-4.98391
119.35,-4.648229
119.4,-4.442178
119.45,-4.28969
119.5,-4.249172
119.55,-4.425458
119.6,-4.759504
119.65,-4.913766
119.7,-4.906767
119.75,-4.843547
119.8,-4.763361
119.85,-4.604655
119.9,-4.645163
119.95,-4.804438
120,-4.680484
120.05,-4.56284
120.1,-4.522908
120.15,-4.54221
120.2,-4.592896
120.25,-4.581213
120.3,-4.585852
120.35,-4.632168
120.4,-4.861459
120.45,-5.141094
120.5,-5.349111
120.55,-5.509686
120.6,-5.443833
120.65,-5.418686
120.7,-5.300079
120.75,-5.175125
120.8,-5.130417
120.85,-4.980294
120.9,-4.898789
120.95,-4.955313
121,-5.041219
121.05,-5.084364
121.1,-5.016287
121.15,-4.901308
121.2,-4.812113
121.25,-4.777448
121.3,-4.469005
121.35,-4.161643
121.4,-4.147079
121.45,-4.191872
121.5,-4.591977
121.55,-4.921426
121.6,-5.20236
121.65,-5.186967
121.7,-5.174796
121.75,-5.378367
121.8,-5.54501
121.85,-5.609684
121.9,-5.50929
121.95,-5.408759
122,-5.260199
122.05,-5.147133
122.1,-5.235472
122.15,-5.431839
122.2,-5.429715
122.25,-5.361019
122.3,-5.349131
122.35,-5.367452
122.4,-5.291482
122.45,-5.304197
122.5,-5.369834
122.55,-5.392338
122.6,-5.448698
122.65,-5.423514
122.7,-5.373493
122.75,-5.35591
122.8,-5.339414
122.85,-5.448341
122.9,-5.475343
122.95,-5.467536
123,-5.363831
123.05,-5.244425
123.1,-5.418538
123.15,-5.446918
123.2,-5.313724
123.25,-5.202977
123.3,-5.089355
123.35,-5.048136
123.4,-5.198104
123.45,-5.381339
123.5,-5.331317
123.55,-5.159637
123.6,-5.130201
123.65,-5.259902
123.7,-5.299145
123.75,-5.431756
123.8,-5.401545
123.85,-5.166214
123.9,-5.036605
123.95,-5.210014
124,-5.455048
124.05,-5.58804
124.1,-5.648861
124.15,-5.546278
124.2,-5.239393
124.25,-5.086077
124.3,-5.20425
124.35,-5.32844
124.4,-5.516487
124.45,-5.575986
124.5,-5.571208
124.55,-5.487314
124.6,-5.590998
124.65,-5.600395
124.7,-5.432998
124.75,-5.231804
124.8,-5.213744
124.85,-5.278052
124.9,-5.330578
124.95,-5.292829
125,-5.244655
125.05,-5.243323
125.1,-5.34231
125.15,-5.559521
125.2,-5.721073
125.25,-5.729017
125.3,-5.707724
125.35,-5.789885
125.4,-5.874609
125.45,-5.830331
125.5,-5.835907
125.55,-5.854862
125.6,-5.781336
125.65,-5.676174
125.7,-5.598431
125.75,-5.47827
125.8,-5.318895
125.85,-5.263075
125.9,-5.26336
125.95,-5.308449
126,-5.47122
126.05,-5.599477
126.1,-5.647474
126.15,-5.552767
126.2,-5.512034
126.25,-5.504743
126.3,-5.561539
126.35,-5.678356
126.4,-5.751789
126.45,-5.87228
126.5,-5.937249
126.55,-5.939161
126.6,-5.987669
126.65,-6.02338
126.7,-6.007915
126.75,-6.017536
126.8,-5.985929
126.85,-5.90721
126.9,-5.757977
126.95,-5.730435
127,-5.783091
127.05,-5.838022
127.1,-5.86156
127.15,-5.795929
127.2,-5.672846
127.25,-5.599572
127.3,-5.541729
127.35,-5.632644
127.4,-5.719712
127.45,-5.756455
127.5,-5.812799
127.55,-5.853367
127.6,-5.884596
127.65,-5.847486
127.7,-5.956103
127.75,-6.076523
127.8,-6.085366
127.85,-6.008666
127.9,-5.963189
127.95,-5.932491
128,-5.899473
128.05,-5.923216
128.1,-5.950798
128.15,-5.724008
128.2,-5.327841
128.25,-5.186256
128.3,-5.115273
128.35,-5.222021
128.4,-5.451012
128.45,-5.681333
128.5,-5.793827
128.55,-5.753896
128.6,-5.797252
128.65,-5.875134
128.7,-5.920413
128.75,-6.040839
128.8,-6.165763
128.85,-6.302643
128.9,-6.374797
128.95,-6.383881
129,-6.283646
129.05,-6.133574
129.1,-6.096703
129.15,-6.017922
129.2,-6.034573
129.25,-6.115156
129.3,-6.135108
129.35,-6.130339
129.4,-6.171999
129.45,-6.221972
129.5,-6.231227
129.55,-6.144564
129.6,-6.060105
129.65,-6.017312
129.7,-5.847071
129.75,-5.557911
129.8,-5.38098
129.85,-5.459102
129.9,-5.63945
129.95,-6.020138
130,-6.368616
130.05,-6.541862
130.1,-6.374508
130.15,-6.272261
130.2,-6.166529
130.25,-6.151449
130.3,-6.088479
130.35,-6.038389
130.4,-6.092222
130.45,-6.149702
130.5,-6.229156
130.55,-6.237277
130.6,-6.228633
130.65,-5.965884
130.7,-5.922362
130.75,-6.041837
130.8,-6.133802
130.85,-6.195458
130.9,-6.089256
130.95,-5.895475
131,-5.734437
131.05,-5.730844
131.1,-5.8579
131.15,-6.037441
131.2,-6.217432
131.25,-6.455424
131.3,-6.680648
131.35,-6.813405
131.4,-6.839769
131.45,-6.744534
131.5,-6.628989
131.55,-6.488685
131.6,-6.481966
131.65,-6.499043
131.7,-6.386244
131.75,-6.426338
131.8,-6.44296
131.85,-6.42764
131.9,-6.361903
131.95,-6.292319
132,-6.20091
132.05,-6.170506
132.1,-6.299815
132.15,-6.325165
132.2,-6.325165
132.25,-6.325165
132.3,-6.325165
132.35,-6.325165
132.4,-6.325165
132.45,-6.325165
132.5,-6.325165
132.55,-6.325165
132.6,-6.325165
132.65,-6.325165
132.7,-6.325165
132.75,-6.325165
132.8,-6.325165
132.85,-6.325165
132.9,-6.325165
132.95,-6.325165
133,-6.325165
133.05,-6.325165
133.1,-6.325165
133.15,-6.325165
133.2,-6.325165
133.25,-6.325165
133.3,-6.325165
133.35,-6.325165
133.4,-6.325165
133.45,-6.325165
133.5,-6.325165
133.55,-6.325165
133.6,-6.325165
133.65,-6.325165
133.7,-6.325165
133.75,-6.325165
133.8,-6.325165
133.85,-6.325165
133.9,-6.325165
133.95,-6.325165
134,-6.325165
134.05,-6.325165
134.1,-6.325165
134.15,-6.325165
134.2,-6.325165
134.25,-6.325165
134.3,-6.325165
134.35,-6.325165
134.4,-6.325165
134.45,-6.325165
134.5,-6.325165
134.55,-6.325165
134.6,-6.325165
134.65,-6.325165
134.7,-6.325165
134.75,-6.325165
134.8,-6.325165
134.85,-6.325165
134.9,-6.325165
134.95,-6.325165
135,-6.325165
135.05,-6.325165
135.1,-6.325165
135.15,-6.325165
135.2,-6.325165
135.25,-6.325165
135.3,-6.325165
135.35,-6.325165
135.4,-6.325165
135.45,-6.325165
135.5,-6.325165
135.55,-6.325165
135.6,-6.325165
135.65,-6.325165
135.7,-6.325165
135.75,-6.325165
135.8,-6.325165
135.85,-6.325165
135.9,-6.325165
135.95,-6.325165
136,-6.325165
136.05,-6.325165
136.1,-6.325165
136.15,-6.325165
136.2,-6.325165
136.25,-6.325165
136.3,-6.325165
136.35,-6.325165
136.4,-6.325165
136.45,-6.325165
136.5,-6.325165
136.55,-6.325165
136.6,-6.325165
136.65,-6.325165
136.7,-6.325165
136.75,-6.325165
136.8,-6.325165
136.85,-6.325165
136.9,-6.325165
136.95,-6.325165
137,-6.325165
137.05,-6.325165
137.1,-6.325165
137.15,-6.325165
137.2,-6.325165
137.25,-6.325165
137.3,-6.325165
137.35,-6.325165
137.4,-6.325165
137.45,-6.325165
137.5,-6.325165
137.55,-6.325165
137.6,-6.325165
137.65,-6.325165
137.7,-6.325165
137.75,-6.325165
137.8,-6.325165
137.85,-6.325165
137.9,-6.325165
137.95,-6.325165
138,-6.325165
 
Alignment,On
