Data File Name,2100 expert_High Sensitivity DNA Assay_DE34904066_2015-05-22_14-28-17.xad
Data File Path,C:\Program Files (x86)\Agilent\2100 bioanalyzer\2100 expert\Data\2015-05-22
Date Created,"Friday, May 22, 2015 6:28:16 PM"
Date Last Modified,"Wednesday, May 27, 2015 3:00:00 PM"
Version Created,B.02.08.SI648
Version Last Modified,B.02.08.SI648
 
Assay Name,High Sensitivity DNA
Assay Path,C:\Program Files (x86)\Agilent\2100 bioanalyzer\2100 expert\assays\dsDNA
Assay Title,High Sensitivity DNA Assay
Assay Version,1.03
 
Number of Samples Run,11
 
Sample Name,7E #35 post amp 1:20
Number of Events,2121
 
Time,Value
32,0.1032257
32.05,0.1032257
32.1,0.1032257
32.15,0.1032257
32.2,0.1032257
32.25,0.1032257
32.3,0.1032257
32.35,0.1032257
32.4,0.1032257
32.45,0.1032257
32.5,0.1032257
32.55,0.1032257
32.6,0.1032257
32.65,0.1032257
32.7,7.816808E-02
32.75,0.1684007
32.8,0.1782735
32.85,0.2206632
32.9,0.2102591
32.95,0.2895992
33,0.2791024
33.05,0.2391896
33.1,0.1263988
33.15,8.542753E-02
33.2,-2.686219E-02
33.25,-0.1406202
33.3,-0.2348084
33.35,-0.2409788
33.4,-0.2394477
33.45,-0.3304224
33.5,-0.2479762
33.55,-0.2044209
33.6,-0.2151254
33.65,-0.2459586
33.7,-0.1060326
33.75,1.935861E-02
33.8,0.1086065
33.85,0.2872657
33.9,0.3764983
33.95,0.3279006
34,0.2149354
34.05,0.3570269
34.1,0.4656795
34.15,0.5675203
34.2,0.4610777
34.25,0.2412992
34.3,-2.658674E-03
34.35,-0.161693
34.4,-8.707581E-02
34.45,-4.595155E-03
34.5,-3.511983E-02
34.55,-0.2260183
34.6,-0.3451473
34.65,-0.3607031
34.7,-0.1743388
34.75,9.545024E-02
34.8,0.2423285
34.85,0.2348989
34.9,0.1187276
34.95,6.710172E-02
35,0.1564112
35.05,0.2617227
35.1,0.2442275
35.15,0.1783669
35.2,9.749388E-02
35.25,0.1402686
35.3,0.1526838
35.35,6.761444E-02
35.4,-9.374228E-02
35.45,-0.239481
35.5,-0.2611929
35.55,-0.0713658
35.6,4.552452E-02
35.65,0.1235594
35.7,0.1756799
35.75,0.0532846
35.8,-7.107361E-02
35.85,-0.3078602
35.9,-0.2257028
35.95,-0.2017522
36,-0.0981518
36.05,-7.448822E-02
36.1,-0.1778755
36.15,-0.2432817
36.2,-0.1995558
36.25,5.639343E-02
36.3,0.2901574
36.35,0.3205667
36.4,0.1963872
36.45,8.844853E-02
36.5,1.186079E-02
36.55,9.577143E-03
36.6,9.240189E-02
36.65,9.873769E-02
36.7,-0.1366583
36.75,-0.3435806
36.8,-0.3632036
36.85,-0.34782
36.9,-0.3782755
36.95,-0.498681
37,-0.3997597
37.05,-0.2978678
37.1,-0.12363
37.15,0.0904709
37.2,0.1473701
37.25,-6.191804E-02
37.3,-0.253768
37.35,-0.2942921
37.4,-0.3213561
37.45,-0.271096
37.5,-0.1087027
37.55,9.911988E-02
37.6,0.2000611
37.65,0.1735903
37.7,7.069443E-02
37.75,-0.1268456
37.8,-0.2463621
37.85,-0.2256835
37.9,-0.2293515
37.95,-0.2030469
38,-0.1976713
38.05,-0.2624129
38.1,-0.295593
38.15,-0.3503806
38.2,-0.3326497
38.25,-0.4532014
38.3,-0.3233071
38.35,-0.1767865
38.4,-0.1161971
38.45,-9.800304E-02
38.5,5.672885E-02
38.55,7.475305E-02
38.6,7.564374E-02
38.65,0.2710789
38.7,0.5045961
38.75,0.4839907
38.8,0.3261074
38.85,0.1798173
38.9,-0.1604965
38.95,-0.3312992
39,-0.2683339
39.05,-0.1848651
39.1,-0.1906689
39.15,-9.968942E-02
39.2,3.855058E-02
39.25,0.1530546
39.3,0.1664511
39.35,6.016913E-02
39.4,-9.008116E-02
39.45,-0.1657991
39.5,-0.1711388
39.55,-0.2243182
39.6,-9.322936E-02
39.65,-0.1005219
39.7,-8.980613E-02
39.75,-5.518648E-02
39.8,0.0268826
39.85,0.0814295
39.9,0.1190736
39.95,0.3290851
40,0.439595
40.05,0.3145738
40.1,0.1184779
40.15,-1.108301E-02
40.2,-0.184992
40.25,-0.203747
40.3,-5.717776E-02
40.35,-6.254451E-02
40.4,-0.2423358
40.45,-0.4109849
40.5,-0.4228912
40.55,-0.3124019
40.6,-9.079581E-02
40.65,-6.710439E-02
40.7,-8.173188E-02
40.75,-0.1609314
40.8,-0.208842
40.85,-0.1478854
40.9,-6.032337E-03
40.95,3.975515E-02
41,2.572338E-02
41.05,0.1572415
41.1,0.1984711
41.15,0.1228565
41.2,0.1253639
41.25,0.1487844
41.3,5.209528E-02
41.35,-0.1067678
41.4,-0.2017002
41.45,-0.116812
41.5,-0.2027213
41.55,-0.2855912
41.6,-0.2301007
41.65,-0.1732103
41.7,-0.1841418
41.75,-0.2184426
41.8,-4.365972E-02
41.85,-5.728313E-02
41.9,0.0953056
41.95,0.4513319
42,0.9079134
42.05,1.073146
42.1,1.137438
42.15,1.255423
42.2,1.470172
42.25,1.766447
42.3,2.069386
42.35,2.385584
42.4,2.612681
42.45,3.006968
42.5,3.54562
42.55,4.834562
42.6,7.275033
42.65,12.02368
42.7,20.47844
42.75,33.54795
42.8,50.85661
42.85,70.9165
42.9,90.91285
42.95,106.5148
43,114.2485
43.05,110.9758
43.1,98.69946
43.15,79.74004
43.2,58.43074
43.25,38.99108
43.3,23.8622
43.35,13.63139
43.4,7.647091
43.45,4.770433
43.5,3.534289
43.55,2.8526
43.6,2.557739
43.65,2.386245
43.7,1.954556
43.75,1.559801
43.8,1.174605
43.85,1.023859
43.9,0.8383378
43.95,0.6902466
44,0.622598
44.05,0.4712523
44.1,0.3993729
44.15,0.2827805
44.2,0.3927628
44.25,0.4263979
44.3,0.5186003
44.35,0.4798739
44.4,0.567005
44.45,0.6492545
44.5,0.6694687
44.55,0.7447485
44.6,0.8104441
44.65,0.728451
44.7,0.569237
44.75,0.5948756
44.8,0.4817891
44.85,0.589266
44.9,0.7362872
44.95,0.7629346
45,0.6209244
45.05,0.3571759
45.1,0.1657868
45.15,0.1336794
45.2,0.2309522
45.25,0.2348717
45.3,0.178124
45.35,7.176487E-02
45.4,2.076551E-02
45.45,0.1132528
45.5,0.3321804
45.55,0.4270419
45.6,0.4261729
45.65,0.4073979
45.7,0.3957492
45.75,0.3989412
45.8,0.3970498
45.85,0.444306
45.9,0.5306167
45.95,0.4883815
46,0.3675146
46.05,0.3625699
46.1,0.3051359
46.15,0.2479094
46.2,0.2098467
46.25,0.2876018
46.3,0.2540115
46.35,0.1397405
46.4,0.1561975
46.45,0.1244407
46.5,1.902692E-02
46.55,-4.343884E-02
46.6,0.1375437
46.65,0.1805986
46.7,0.3936481
46.75,0.6604773
46.8,0.9943998
46.85,1.122903
46.9,1.046565
46.95,0.9541716
47,0.8474548
47.05,0.7205842
47.1,0.5299906
47.15,0.5209641
47.2,0.3894932
47.25,0.1790382
47.3,0.1016608
47.35,0.2333777
47.4,0.218768
47.45,0.183871
47.5,0.1477712
47.55,-1.201376E-03
47.6,-0.1992763
47.65,-0.3148873
47.7,-0.2639
47.75,-0.3772924
47.8,-0.3753701
47.85,-0.5136082
47.9,-0.4850015
47.95,-0.3634097
48,-0.1049301
48.05,3.114217E-03
48.1,3.612305E-02
48.15,4.128377E-02
48.2,-8.248626E-02
48.25,-0.1212059
48.3,4.993265E-02
48.35,0.1593089
48.4,0.1355588
48.45,0.2490344
48.5,0.1856307
48.55,1.434194E-02
48.6,-9.867185E-02
48.65,-9.851231E-02
48.7,-8.604029E-02
48.75,-9.556684E-02
48.8,8.755759E-02
48.85,0.1821824
48.9,0.1191998
48.95,-6.176486E-02
49,-0.1700066
49.05,-0.3131825
49.1,-0.3563953
49.15,-0.3126665
49.2,-0.1375297
49.25,-0.1228696
49.3,-4.825006E-02
49.35,7.363024E-02
49.4,0.1540545
49.45,0.1587647
49.5,5.500683E-02
49.55,-3.390674E-03
49.6,-0.1347614
49.65,-0.1160434
49.7,-3.969337E-02
49.75,7.924296E-02
49.8,9.806059E-02
49.85,-0.1188619
49.9,-0.3302785
49.95,-0.429582
50,-0.4248366
50.05,-0.4034738
50.1,-0.174779
50.15,-0.150527
50.2,-0.2635215
50.25,-0.299229
50.3,-0.1227172
50.35,-0.1126611
50.4,-0.0503781
50.45,2.871368E-02
50.5,2.584998E-02
50.55,6.991149E-02
50.6,0.1198276
50.65,0.298409
50.7,0.1797937
50.75,0.1164714
50.8,3.658187E-02
50.85,-6.217237E-04
50.9,-0.1000993
50.95,-0.1558936
51,-0.1480987
51.05,-0.114011
51.1,-0.1349683
51.15,-0.1725107
51.2,-5.217184E-02
51.25,-2.658637E-02
51.3,0.1093791
51.35,-5.496358E-03
51.4,0.1081353
51.45,0.2247821
51.5,0.3550489
51.55,0.6266986
51.6,1.00098
51.65,1.444531
51.7,1.817108
51.75,2.364107
51.8,2.802328
51.85,3.18576
51.9,3.765395
51.95,4.622816
52,5.566462
52.05,6.475995
52.1,7.326301
52.15,8.142931
52.2,8.89459
52.25,9.650244
52.3,10.37248
52.35,10.96494
52.4,11.7754
52.45,13.39817
52.5,17.67647
52.55,25.73936
52.6,39.23852
52.65,57.89302
52.7,81.07309
52.75,103.9609
52.8,121.4468
52.85,129.0924
52.9,123.8621
52.95,106.8277
53,82.52414
53.05,57.65736
53.1,36.26312
53.15,21.61398
53.2,12.95133
53.25,8.435082
53.3,5.926441
53.35,4.407453
53.4,3.323013
53.45,2.431417
53.5,1.732473
53.55,1.159366
53.6,0.9836587
53.65,0.6974702
53.7,0.5264214
53.75,0.374997
53.8,0.3705838
53.85,0.3553583
53.9,0.3399019
53.95,0.3621429
54,0.4027165
54.05,0.4799701
54.1,0.5767086
54.15,0.6302953
54.2,0.5354517
54.25,0.5470221
54.3,0.4726181
54.35,0.5870941
54.4,0.6138299
54.45,0.526969
54.5,0.3674265
54.55,0.1973856
54.6,0.1009147
54.65,5.037596E-02
54.7,0.1990074
54.75,0.3326209
54.8,0.3741472
54.85,0.3290952
54.9,0.2634602
54.95,0.1306826
55,0.2141401
55.05,0.2675782
55.1,0.3276173
55.15,0.1829826
55.2,4.484115E-02
55.25,-1.163917E-02
55.3,-1.819422E-02
55.35,9.344365E-02
55.4,0.240114
55.45,0.3887126
55.5,0.344658
55.55,0.3116392
55.6,0.1920759
55.65,3.427463E-02
55.7,-5.065417E-02
55.75,-0.1422775
55.8,-9.053106E-02
55.85,-7.389013E-02
55.9,4.346121E-02
55.95,9.546022E-02
56,0.116026
56.05,0.185284
56.1,7.911325E-02
56.15,3.313985E-02
56.2,0.1410567
56.25,0.209325
56.3,0.263701
56.35,0.2949821
56.4,0.3190425
56.45,0.2419083
56.5,0.2232938
56.55,0.3425483
56.6,0.2638482
56.65,0.3547056
56.7,0.4753631
56.75,0.5331494
56.8,0.3409111
56.85,0.2358365
56.9,5.922527E-02
56.95,-0.1524839
57,-0.2111452
57.05,-0.1962398
57.1,-0.1229387
57.15,-0.1273547
57.2,-0.1465982
57.25,-0.2720817
57.3,-0.2162216
57.35,-5.414774E-02
57.4,4.232291E-02
57.45,-1.618844E-02
57.5,-4.919826E-02
57.55,-0.1542493
57.6,-0.1628035
57.65,-3.213068E-02
57.7,4.500392E-02
57.75,0.1516941
57.8,0.1133678
57.85,0.1542071
57.9,0.0399072
57.95,1.298802E-02
58,-5.712854E-03
58.05,1.364582E-02
58.1,7.031859E-02
58.15,-1.612052E-02
58.2,-0.2318485
58.25,-0.2885785
58.3,-0.235357
58.35,-0.173327
58.4,-0.1260149
58.45,-0.1823221
58.5,-0.261645
58.55,-0.4345758
58.6,-0.3611751
58.65,-0.2852019
58.7,-0.1943469
58.75,-0.115528
58.8,-3.629544E-02
58.85,-0.0392854
58.9,4.326086E-03
58.95,0.1823543
59,0.2530247
59.05,0.180592
59.1,4.687597E-02
59.15,8.362554E-03
59.2,-0.1142183
59.25,-0.2456412
59.3,-0.2284582
59.35,-0.2332577
59.4,-0.269326
59.45,-0.3153955
59.5,-0.3111013
59.55,-0.3727254
59.6,-0.307038
59.65,-0.3410761
59.7,-0.3863519
59.75,-0.4958618
59.8,-0.589377
59.85,-0.6261858
59.9,-0.4715069
59.95,-0.3294441
60,-0.3631648
60.05,-0.3253486
60.1,-0.2956749
60.15,-0.3056818
60.2,-0.3110561
60.25,-0.3168814
60.3,-0.3618428
60.35,-0.4116776
60.4,-0.3396358
60.45,-0.3224925
60.5,-0.3996506
60.55,-0.4326066
60.6,-0.3710211
60.65,-0.3009438
60.7,-0.2958256
60.75,-0.3987677
60.8,-0.4025489
60.85,-0.4340172
60.9,-0.5034842
60.95,-0.4832622
61,-0.3536328
61.05,-0.299941
61.1,-0.2050981
61.15,-0.1176594
61.2,-0.1946945
61.25,-0.3134042
61.3,-0.3890386
61.35,-0.2898034
61.4,-0.3106168
61.45,-0.3116805
61.5,-0.2900967
61.55,-0.1587995
61.6,2.582127E-02
61.65,8.375303E-02
61.7,-4.414235E-02
61.75,-0.2704499
61.8,-0.4095212
61.85,-0.4384637
61.9,-0.3787481
61.95,-0.4140485
62,-0.5126982
62.05,-0.5880831
62.1,-0.3557867
62.15,-0.2969309
62.2,-0.4175501
62.25,-0.5457717
62.3,-0.6500289
62.35,-0.5721494
62.4,-0.4122711
62.45,-0.2153695
62.5,-0.2442117
62.55,-0.2632894
62.6,-0.2808495
62.65,-0.264376
62.7,-0.2292647
62.75,-0.2915502
62.8,-0.3804165
62.85,-0.3198067
62.9,-0.3586082
62.95,-0.5786503
63,-0.7004298
63.05,-0.7442352
63.1,-0.7445922
63.15,-0.6789107
63.2,-0.5742836
63.25,-0.5850447
63.3,-0.6306385
63.35,-0.6898819
63.4,-0.5977389
63.45,-0.5986885
63.5,-0.5643969
63.55,-0.4185122
63.6,-0.1861546
63.65,-0.1006596
63.7,-0.1754166
63.75,-5.810764E-02
63.8,-0.129253
63.85,-0.2079127
63.9,-0.1814004
63.95,-0.1222469
64,-0.1543546
64.05,-0.2852384
64.1,-0.4046833
64.15,-0.6094514
64.2,-0.6649182
64.25,-0.6337998
64.3,-0.5164406
64.35,-0.4860878
64.4,-0.6031482
64.45,-0.7904038
64.5,-0.9590197
64.55,-0.9651748
64.6,-0.8408973
64.65,-0.6047846
64.7,-0.3942625
64.75,-0.3643725
64.8,-0.4072378
64.85,-0.4858132
64.9,-0.3920867
64.95,-0.348015
65,-0.3687217
65.05,-0.2983096
65.1,-0.3708332
65.15,-0.3651837
65.2,-0.3713368
65.25,-0.3293649
65.3,-0.5016618
65.35,-0.7565466
65.4,-0.7716223
65.45,-0.7867517
65.5,-0.7512285
65.55,-0.9036934
65.6,-0.9347362
65.65,-0.9753663
65.7,-0.8240197
65.75,-0.6690066
65.8,-0.5460308
65.85,-0.5240296
65.9,-0.6226441
65.95,-0.697762
66,-0.6896522
66.05,-0.7076088
66.1,-0.7385157
66.15,-0.7755072
66.2,-0.8377054
66.25,-0.8761704
66.3,-0.8338464
66.35,-0.7073177
66.4,-0.6399133
66.45,-0.7146504
66.5,-0.7729326
66.55,-0.7955692
66.6,-0.8282791
66.65,-0.9762577
66.7,-1.07676
66.75,-1.128434
66.8,-0.9783058
66.85,-0.757794
66.9,-0.4559024
66.95,-0.5908937
67,-0.7730792
67.05,-0.8396276
67.1,-0.7990427
67.15,-0.726293
67.2,-0.7088891
67.25,-0.6551999
67.3,-0.759804
67.35,-0.7548842
67.4,-0.6288207
67.45,-0.6475959
67.5,-0.8058222
67.55,-0.900332
67.6,-0.899832
67.65,-0.8086749
67.7,-0.7854728
67.75,-0.8909616
67.8,-1.114228
67.85,-1.290511
67.9,-1.34967
67.95,-1.331056
68,-1.055921
68.05,-0.9712611
68.1,-1.074601
68.15,-1.18713
68.2,-1.259948
68.25,-1.351913
68.3,-1.28484
68.35,-1.024643
68.4,-0.9566167
68.45,-0.9595283
68.5,-1.064798
68.55,-1.035597
68.6,-0.9346824
68.65,-0.923682
68.7,-0.9520563
68.75,-1.044862
68.8,-1.186863
68.85,-1.279377
68.9,-1.226651
68.95,-1.132922
69,-1.2165
69.05,-1.428948
69.1,-1.414886
69.15,-1.550634
69.2,-1.529519
69.25,-1.371769
69.3,-1.181608
69.35,-1.107228
69.4,-1.227545
69.45,-1.182924
69.5,-1.106522
69.55,-1.13283
69.6,-1.229569
69.65,-1.348144
69.7,-1.456411
69.75,-1.484628
69.8,-1.401477
69.85,-1.182695
69.9,-1.121675
69.95,-1.131126
70,-1.181551
70.05,-1.276606
70.1,-1.479606
70.15,-1.629277
70.2,-1.604967
70.25,-1.498212
70.3,-1.483724
70.35,-1.565171
70.4,-1.572052
70.45,-1.632567
70.5,-1.620412
70.55,-1.552001
70.6,-1.443992
70.65,-1.413491
70.7,-1.278858
70.75,-1.05771
70.8,-0.9647936
70.85,-0.9828034
70.9,-1.133971
70.95,-1.103954
71,-1.162886
71.05,-1.040361
71.1,-0.9948707
71.15,-1.022136
71.2,-1.248246
71.25,-1.496601
71.3,-1.643546
71.35,-1.836955
71.4,-1.93069
71.45,-1.934814
71.5,-1.788866
71.55,-1.779825
71.6,-1.672434
71.65,-1.596319
71.7,-1.634238
71.75,-1.705013
71.8,-1.712636
71.85,-1.648046
71.9,-1.550206
71.95,-1.486116
72,-1.543473
72.05,-1.51647
72.1,-1.441701
72.15,-1.287457
72.2,-1.258772
72.25,-1.23445
72.3,-1.364506
72.35,-1.56606
72.4,-1.691716
72.45,-1.658529
72.5,-1.589757
72.55,-1.597682
72.6,-1.512458
72.65,-1.574198
72.7,-1.75683
72.75,-1.904565
72.8,-1.88113
72.85,-1.92023
72.9,-2.050487
72.95,-2.113513
73,-2.038923
73.05,-1.966274
73.1,-1.829353
73.15,-1.669892
73.2,-1.603769
73.25,-1.575127
73.3,-1.613379
73.35,-1.463924
73.4,-1.507934
73.45,-1.584142
73.5,-1.563455
73.55,-1.48203
73.6,-1.406346
73.65,-1.49448
73.7,-1.539688
73.75,-1.61959
73.8,-1.707429
73.85,-1.823029
73.9,-1.676813
73.95,-1.657547
74,-1.85726
74.05,-2.010229
74.1,-2.082736
74.15,-2.164575
74.2,-2.134041
74.25,-1.94901
74.3,-1.891399
74.35,-1.834348
74.4,-1.667694
74.45,-1.513211
74.5,-1.392004
74.55,-1.458495
74.6,-1.643724
74.65,-1.718833
74.7,-1.804268
74.75,-1.900384
74.8,-1.946717
74.85,-1.908289
74.9,-2.010061
74.95,-2.104927
75,-1.972782
75.05,-2.040356
75.1,-2.060429
75.15,-1.944127
75.2,-1.865954
75.25,-1.927696
75.3,-2.05733
75.35,-2.065982
75.4,-2.024322
75.45,-1.885135
75.5,-1.634421
75.55,-1.367794
75.6,-1.373109
75.65,-1.546443
75.7,-1.686607
75.75,-1.707224
75.8,-1.85833
75.85,-1.901055
75.9,-1.84122
75.95,-1.718809
76,-1.629282
76.05,-1.71317
76.1,-1.891881
76.15,-2.084543
76.2,-2.322493
76.25,-2.303093
76.3,-1.999976
76.35,-2.031079
76.4,-2.195896
76.45,-2.330377
76.5,-2.208256
76.55,-2.071824
76.6,-1.886929
76.65,-1.655844
76.7,-1.608402
76.75,-1.661898
76.8,-1.764125
76.85,-1.708121
76.9,-1.782123
76.95,-1.932163
77,-2.064548
77.05,-2.141932
77.1,-2.166935
77.15,-2.139809
77.2,-2.057373
77.25,-2.000563
77.3,-1.997293
77.35,-2.123712
77.4,-2.290659
77.45,-2.330937
77.5,-2.41609
77.55,-2.359971
77.6,-2.25964
77.65,-2.337736
77.7,-2.486747
77.75,-2.46391
77.8,-2.361241
77.85,-2.327045
77.9,-2.293636
77.95,-2.168289
78,-2.261856
78.05,-2.198994
78.1,-2.064835
78.15,-2.022889
78.2,-2.113956
78.25,-2.103043
78.3,-1.957758
78.35,-1.796527
78.4,-1.744829
78.45,-1.857128
78.5,-1.996401
78.55,-2.062511
78.6,-2.003456
78.65,-2.182785
78.7,-2.161636
78.75,-2.387996
78.8,-2.614832
78.85,-2.711701
78.9,-2.592758
78.95,-2.419514
79,-2.269736
79.05,-2.156366
79.1,-2.286564
79.15,-2.372756
79.2,-2.46376
79.25,-2.261904
79.3,-2.133149
79.35,-1.846321
79.4,-1.795591
79.45,-1.836002
79.5,-1.957707
79.55,-2.228381
79.6,-2.377264
79.65,-2.522769
79.7,-2.487397
79.75,-2.611424
79.8,-2.324579
79.85,-2.278733
79.9,-2.249057
79.95,-2.349403
80,-2.464558
80.05,-2.628509
80.1,-2.621666
80.15,-2.391063
80.2,-2.22382
80.25,-2.164093
80.3,-2.291716
80.35,-2.369755
80.4,-2.420821
80.45,-2.225617
80.5,-2.035143
80.55,-1.900074
80.6,-1.972741
80.65,-2.12049
80.7,-2.248841
80.75,-2.221971
80.8,-2.135655
80.85,-2.10146
80.9,-2.015179
80.95,-2.061779
81,-2.109925
81.05,-2.335816
81.1,-2.37736
81.15,-2.602381
81.2,-2.827778
81.25,-2.820951
81.3,-2.635786
81.35,-2.451859
81.4,-2.293126
81.45,-2.12229
81.5,-2.177187
81.55,-2.237209
81.6,-2.286208
81.65,-2.267172
81.7,-2.292756
81.75,-2.227096
81.8,-2.141471
81.85,-2.043445
81.9,-1.991537
81.95,-2.199377
82,-2.385644
82.05,-2.447802
82.1,-2.485665
82.15,-2.454159
82.2,-2.360547
82.25,-2.16617
82.3,-2.341987
82.35,-2.498973
82.4,-2.538598
82.45,-2.624522
82.5,-2.587347
82.55,-2.45515
82.6,-2.41514
82.65,-2.581802
82.7,-2.677667
82.75,-2.428127
82.8,-2.261459
82.85,-2.237472
82.9,-2.185869
82.95,-2.070102
83,-2.026843
83.05,-1.937104
83.1,-1.905411
83.15,-2.153648
83.2,-2.428237
83.25,-2.502426
83.3,-2.462791
83.35,-2.428168
83.4,-2.377412
83.45,-2.303113
83.5,-2.430385
83.55,-2.566092
83.6,-2.654165
83.65,-2.705744
83.7,-2.645271
83.75,-2.593621
83.8,-2.632313
83.85,-2.656992
83.9,-2.639003
83.95,-2.466191
84,-2.450417
84.05,-2.273298
84.1,-2.276911
84.15,-2.315199
84.2,-2.277081
84.25,-2.127088
84.3,-2.106621
84.35,-2.229443
84.4,-2.43147
84.45,-2.748403
84.5,-2.89175
84.55,-2.774212
84.6,-2.563086
84.65,-2.543715
84.7,-2.564436
84.75,-2.708084
84.8,-2.840468
84.85,-2.809072
84.9,-2.708787
84.95,-2.542027
85,-2.492355
85.05,-2.42728
85.1,-2.48999
85.15,-2.558081
85.2,-2.481597
85.25,-2.452294
85.3,-2.34905
85.35,-2.221865
85.4,-2.176256
85.45,-2.192654
85.5,-2.262218
85.55,-2.305578
85.6,-2.299951
85.65,-2.19766
85.7,-2.018996
85.75,-2.069336
85.8,-2.267526
85.85,-2.463322
85.9,-2.591964
85.95,-2.637356
86,-2.5149
86.05,-2.329018
86.1,-2.275479
86.15,-2.34072
86.2,-2.533434
86.25,-2.604764
86.3,-2.614948
86.35,-2.396726
86.4,-2.289607
86.45,-2.120363
86.5,-2.103127
86.55,-2.076681
86.6,-2.111024
86.65,-2.150641
86.7,-2.239588
86.75,-2.353935
86.8,-2.400148
86.85,-2.566366
86.9,-2.5316
86.95,-2.525885
87,-2.416853
87.05,-2.435238
87.1,-2.565943
87.15,-2.656956
87.2,-2.579563
87.25,-2.437687
87.3,-2.297801
87.35,-2.194036
87.4,-2.34206
87.45,-2.595939
87.5,-2.862162
87.55,-2.818323
87.6,-2.679346
87.65,-2.507233
87.7,-2.306992
87.75,-2.156957
87.8,-2.164137
87.85,-2.258452
87.9,-2.266594
87.95,-2.191816
88,-2.255387
88.05,-2.340525
88.1,-2.389902
88.15,-2.429256
88.2,-2.408928
88.25,-2.467339
88.3,-2.500951
88.35,-2.569667
88.4,-2.731042
88.45,-2.682781
88.5,-2.551082
88.55,-2.458259
88.6,-2.622892
88.65,-2.486792
88.7,-2.455858
88.75,-2.448876
88.8,-2.277664
88.85,-2.126091
88.9,-2.218458
88.95,-2.217963
89,-2.11785
89.05,-2.058772
89.1,-1.921349
89.15,-1.966684
89.2,-2.122509
89.25,-2.513369
89.3,-2.701175
89.35,-2.836574
89.4,-2.702496
89.45,-2.560495
89.5,-2.541991
89.55,-2.578432
89.6,-2.606205
89.65,-2.671892
89.7,-2.721773
89.75,-2.472439
89.8,-2.308132
89.85,-2.306721
89.9,-2.218269
89.95,-2.20932
90,-2.325313
90.05,-2.306313
90.1,-2.18973
90.15,-2.042284
90.2,-2.096736
90.25,-2.144593
90.3,-2.116882
90.35,-2.130009
90.4,-2.240711
90.45,-2.379068
90.5,-2.358348
90.55,-2.541108
90.6,-2.659265
90.65,-2.707509
90.7,-2.706636
90.75,-2.541717
90.8,-2.343932
90.85,-2.227071
90.9,-2.232423
90.95,-2.23871
91,-2.326035
91.05,-2.361232
91.1,-2.434013
91.15,-2.519406
91.2,-2.557383
91.25,-2.401877
91.3,-2.299885
91.35,-2.230501
91.4,-2.212901
91.45,-2.19082
91.5,-2.054538
91.55,-2.044097
91.6,-2.04269
91.65,-2.204865
91.7,-2.326439
91.75,-2.403508
91.8,-2.419845
91.85,-2.441584
91.9,-2.514659
91.95,-2.491841
92,-2.39758
92.05,-2.431537
92.1,-2.489257
92.15,-2.510657
92.2,-2.509799
92.25,-2.410569
92.3,-2.289027
92.35,-2.06467
92.4,-2.155868
92.45,-2.248379
92.5,-2.296359
92.55,-2.213552
92.6,-2.16386
92.65,-2.084471
92.7,-1.985866
92.75,-2.124945
92.8,-2.231308
92.85,-2.378612
92.9,-2.380352
92.95,-2.409262
93,-2.256595
93.05,-1.994452
93.1,-1.806184
93.15,-1.892929
93.2,-2.22494
93.25,-2.504803
93.3,-2.532087
93.35,-2.437876
93.4,-2.371142
93.45,-2.201037
93.5,-2.395184
93.55,-2.593194
93.6,-2.691665
93.65,-2.581792
93.7,-2.362989
93.75,-2.111114
93.8,-1.94124
93.85,-1.921673
93.9,-2.07721
93.95,-2.230115
94,-2.281473
94.05,-2.251801
94.1,-2.091708
94.15,-2.053064
94.2,-1.758365
94.25,-1.751855
94.3,-1.922627
94.35,-2.064846
94.4,-2.141812
94.45,-2.31621
94.5,-2.528141
94.55,-2.227866
94.6,-2.083709
94.65,-1.79294
94.7,-1.661304
94.75,-1.615446
94.8,-1.826478
94.85,-1.971135
94.9,-1.907673
94.95,-1.78816
95,-1.665781
95.05,-1.671815
95.1,-1.672212
95.15,-1.730483
95.2,-1.804244
95.25,-1.903688
95.3,-1.878918
95.35,-2.018439
95.4,-2.166129
95.45,-2.284236
95.5,-2.171844
95.55,-2.084515
95.6,-2.02039
95.65,-1.984687
95.7,-2.100794
95.75,-2.090112
95.8,-1.980531
95.85,-1.755633
95.9,-1.81172
95.95,-1.839446
96,-1.838055
96.05,-1.56948
96.1,-1.292077
96.15,-1.199009
96.2,-1.323567
96.25,-1.2645
96.3,-1.046662
96.35,-0.9559166
96.4,-0.9008843
96.45,-1.238942
96.5,-1.664656
96.55,-1.754652
96.6,-1.684886
96.65,-1.541812
96.7,-1.515558
96.75,-1.384701
96.8,-1.28638
96.85,-1.329582
96.9,-1.534505
96.95,-1.611102
97,-1.537523
97.05,-1.443319
97.1,-1.253086
97.15,-1.13925
97.2,-1.39243
97.25,-1.562905
97.3,-1.368785
97.35,-1.117004
97.4,-1.005703
97.45,-0.9977158
97.5,-0.9254713
97.55,-1.031186
97.6,-1.204924
97.65,-1.241397
97.7,-1.252647
97.75,-1.42688
97.8,-1.586521
97.85,-1.66001
97.9,-1.687476
97.95,-1.85983
98,-1.949632
98.05,-1.964445
98.1,-1.904548
98.15,-1.747207
98.2,-1.540135
98.25,-1.122499
98.3,-0.7256858
98.35,-0.5191891
98.4,-0.6831644
98.45,-1.003101
98.5,-1.232704
98.55,-1.280024
98.6,-1.112883
98.65,-0.9984046
98.7,-1.235782
98.75,-1.457809
98.8,-1.430742
98.85,-1.326998
98.9,-1.129576
98.95,-1.159863
99,-1.239151
99.05,-1.276442
99.1,-1.146214
99.15,-1.018399
99.2,-1.08874
99.25,-1.173908
99.3,-1.442818
99.35,-1.559116
99.4,-1.705477
99.45,-1.670296
99.5,-1.368022
99.55,-0.892458
99.6,-0.7249982
99.65,-0.707791
99.7,-0.8725027
99.75,-0.8759944
99.8,-0.7834677
99.85,-0.5541785
99.9,-0.4551849
99.95,-0.7715324
100,-0.8739315
100.05,-1.091187
100.1,-1.221582
100.15,-1.528929
100.2,-1.937361
100.25,-2.149572
100.3,-1.974428
100.35,-1.720875
100.4,-1.7219
100.45,-1.772864
100.5,-1.827777
100.55,-1.713935
100.6,-1.427145
100.65,-1.153301
100.7,-1.236983
100.75,-1.575184
100.8,-1.646151
100.85,-1.362994
100.9,-1.079618
100.95,-0.903806
101,-0.9250526
101.05,-1.00262
101.1,-1.287917
101.15,-1.387737
101.2,-1.1308
101.25,-1.168817
101.3,-1.223831
101.35,-1.559466
101.4,-1.952392
101.45,-2.261695
101.5,-2.352072
101.55,-1.920352
101.6,-1.489207
101.65,-1.245867
101.7,-1.219895
101.75,-1.312864
101.8,-1.567979
101.85,-1.856793
101.9,-2.077837
101.95,-1.959552
102,-1.98955
102.05,-1.901856
102.1,-1.859705
102.15,-1.899662
102.2,-1.800228
102.25,-1.699582
102.3,-1.593928
102.35,-1.609736
102.4,-1.682346
102.45,-2.087597
102.5,-2.536376
102.55,-2.876137
102.6,-2.952709
102.65,-2.753431
102.7,-2.414819
102.75,-2.401651
102.8,-2.67144
102.85,-2.668592
102.9,-2.627339
102.95,-2.403767
103,-2.289284
103.05,-2.146529
103.1,-2.288304
103.15,-2.24365
103.2,-2.168728
103.25,-2.160368
103.3,-2.249996
103.35,-2.341596
103.4,-2.268987
103.45,-2.38407
103.5,-2.494005
103.55,-2.61194
103.6,-2.610997
103.65,-2.565267
103.7,-2.457741
103.75,-2.322257
103.8,-2.338151
103.85,-2.5011
103.9,-2.781302
103.95,-3.037835
104,-3.248742
104.05,-3.481776
104.1,-3.490249
104.15,-3.318131
104.2,-3.15573
104.25,-2.983326
104.3,-2.69754
104.35,-2.570222
104.4,-2.622791
104.45,-2.717423
104.5,-2.832003
104.55,-3.052816
104.6,-3.182209
104.65,-3.136422
104.7,-2.991855
104.75,-2.784176
104.8,-2.644392
104.85,-2.739703
104.9,-2.819992
104.95,-3.0648
105,-3.283461
105.05,-3.378817
105.1,-3.286829
105.15,-3.114336
105.2,-3.048847
105.25,-2.749859
105.3,-2.664955
105.35,-2.705204
105.4,-2.882971
105.45,-2.905143
105.5,-2.943193
105.55,-2.92792
105.6,-2.78198
105.65,-2.611128
105.7,-2.43451
105.75,-2.199976
105.8,-2.045824
105.85,-2.170377
105.9,-2.395138
105.95,-2.957123
106,-3.151935
106.05,-3.213111
106.1,-3.156615
106.15,-3.05898
106.2,-2.753343
106.25,-2.568188
106.3,-2.734867
106.35,-2.73981
106.4,-2.656247
106.45,-2.669829
106.5,-2.582713
106.55,-2.302586
106.6,-2.486955
106.65,-2.80025
106.7,-2.963301
106.75,-2.938056
106.8,-2.939481
106.85,-2.99914
106.9,-3.108932
106.95,-3.209763
107,-2.976721
107.05,-2.827603
107.1,-2.737243
107.15,-2.712558
107.2,-2.799363
107.25,-2.936364
107.3,-3.092344
107.35,-3.095685
107.4,-3.03209
107.45,-3.006239
107.5,-2.691583
107.55,-2.270114
107.6,-2.327443
107.65,-2.707952
107.7,-3.140467
107.75,-3.458776
107.8,-3.744935
107.85,-3.475345
107.9,-3.12282
107.95,-3.068721
108,-3.045705
108.05,-3.03534
108.1,-2.98834
108.15,-2.877547
108.2,-2.580272
108.25,-2.378958
108.3,-2.357642
108.35,-2.678931
108.4,-3.03019
108.45,-3.33972
108.5,-3.432156
108.55,-3.462686
108.6,-3.293685
108.65,-3.082563
108.7,-3.02366
108.75,-2.939195
108.8,-2.929355
108.85,-2.936172
108.9,-3.21384
108.95,-3.200053
109,-3.184715
109.05,-3.136339
109.1,-3.04355
109.15,-2.96119
109.2,-2.981388
109.25,-2.83563
109.3,-2.173739
109.35,-1.655084
109.4,-1.586072
109.45,-1.996818
109.5,-2.704303
109.55,-2.883981
109.6,-2.867243
109.65,-2.562281
109.7,-2.276823
109.75,-2.261763
109.8,-2.456199
109.85,-2.499644
109.9,-2.421505
109.95,-2.629323
110,-2.915546
110.05,-2.974584
110.1,-2.889424
110.15,-2.893608
110.2,-2.929497
110.25,-2.989233
110.3,-3.209439
110.35,-3.174161
110.4,-2.852982
110.45,-2.669191
110.5,-2.896072
110.55,-3.370553
110.6,-3.570631
110.65,-3.442405
110.7,-3.166474
110.75,-2.919683
110.8,-2.884002
110.85,-3.241293
110.9,-3.474296
110.95,-3.346538
111,-3.046435
111.05,-2.714287
111.1,-2.336113
111.15,-2.538387
111.2,-2.954101
111.25,-3.160862
111.3,-3.04182
111.35,-2.270877
111.4,-1.741434
111.45,-1.862745
111.5,-2.611844
111.55,-3.354395
111.6,-3.594451
111.65,-3.527838
111.7,-3.184816
111.75,-3.290834
111.8,-3.304163
111.85,-3.058435
111.9,-2.485693
111.95,-1.420518
112,-0.2091557
112.05,0.6867238
112.1,1.609804
112.15,2.940257
112.2,4.594843
112.25,7.85461
112.3,12.5233
112.35,17.63188
112.4,24.42226
112.45,33.84311
112.5,44.91032
112.55,54.19345
112.6,67.46848
112.65,84.90475
112.7,99.7471
112.75,111.3843
112.8,119.167
112.85,125.2264
112.9,132.2258
112.95,140.7353
113,148.5104
113.05,148.3977
113.1,146.7421
113.15,143.2441
113.2,139.1497
113.25,132.3353
113.3,120.5526
113.35,109.3546
113.4,102.2415
113.45,98.91319
113.5,94.03479
113.55,87.55209
113.6,77.38413
113.65,65.57199
113.7,56.03217
113.75,47.8
113.8,42.22519
113.85,36.64025
113.9,31.76023
113.95,27.08365
114,23.30377
114.05,21.20854
114.1,19.59127
114.15,19.45292
114.2,17.52504
114.25,14.76771
114.3,11.97896
114.35,9.806923
114.4,9.795757
114.45,9.000684
114.5,6.949852
114.55,4.731486
114.6,3.290429
114.65,2.926429
114.7,3.550351
114.75,4.303166
114.8,3.781124
114.85,2.532118
114.9,1.400067
114.95,0.1798625
115,-0.6874868
115.05,-1.14743
115.1,-1.548234
115.15,-1.496835
115.2,-0.9394082
115.25,-0.2999989
115.3,0.9171653
115.35,2.020423
115.4,3.041033
115.45,3.111757
115.5,1.87843
115.55,0.9196906
115.6,0.1716051
115.65,-0.5114483
115.7,-1.34464
115.75,-2.034919
115.8,-2.708693
115.85,-3.445016
115.9,-2.881644
115.95,-1.630256
116,-0.8629821
116.05,-0.3511187
116.1,-0.2064246
116.15,-0.7557319
116.2,-1.585693
116.25,-2.186193
116.3,-2.205324
116.35,-1.793214
116.4,-1.332799
116.45,-1.077627
116.5,-0.7670526
116.55,-1.041061
116.6,-1.4612
116.65,-2.373037
116.7,-2.678488
116.75,-2.83815
116.8,-2.986648
116.85,-3.223224
116.9,-3.80786
116.95,-4.487824
117,-4.977441
117.05,-4.68766
117.1,-3.448413
117.15,-2.356541
117.2,-2.049305
117.25,-2.631734
117.3,-3.671242
117.35,-4.734763
117.4,-5.172692
117.45,-4.893643
117.5,-4.630872
117.55,-4.684439
117.6,-4.870254
117.65,-4.880252
117.7,-4.733108
117.75,-4.553247
117.8,-4.397034
117.85,-4.612481
117.9,-4.800919
117.95,-5.011751
118,-5.005198
118.05,-4.93807
118.1,-4.744511
118.15,-4.465032
118.2,-4.529516
118.25,-4.719513
118.3,-5.111501
118.35,-5.332464
118.4,-5.423725
118.45,-5.249459
118.5,-5.223617
118.55,-5.195781
118.6,-5.199846
118.65,-5.203561
118.7,-5.197219
118.75,-5.13205
118.8,-5.132079
118.85,-4.96635
118.9,-4.665975
118.95,-4.622431
119,-4.821322
119.05,-5.063696
119.1,-5.276487
119.15,-5.45961
119.2,-5.412299
119.25,-5.330187
119.3,-5.367394
119.35,-5.471005
119.4,-5.494196
119.45,-5.450304
119.5,-5.392056
119.55,-5.297106
119.6,-5.231309
119.65,-4.996872
119.7,-4.929756
119.75,-4.996118
119.8,-5.140667
119.85,-5.371748
119.9,-5.547926
119.95,-5.439815
120,-5.043852
120.05,-4.823032
120.1,-4.586903
120.15,-4.484642
120.2,-4.64149
120.25,-4.945839
120.3,-5.104716
120.35,-5.264859
120.4,-5.298831
120.45,-5.177489
120.5,-5.116165
120.55,-5.140125
120.6,-5.207222
120.65,-5.135643
120.7,-5.179544
120.75,-5.145414
120.8,-5.169655
120.85,-5.334539
120.9,-5.406039
120.95,-5.378051
121,-5.340942
121.05,-5.389388
121.1,-5.338572
121.15,-5.246582
121.2,-5.258914
121.25,-5.310901
121.3,-5.367161
121.35,-5.328245
121.4,-5.046692
121.45,-4.863107
121.5,-4.766937
121.55,-4.8842
121.6,-5.106315
121.65,-5.346553
121.7,-5.470965
121.75,-5.509636
121.8,-5.692266
121.85,-5.700719
121.9,-5.642408
121.95,-5.583336
122,-5.517056
122.05,-5.37079
122.1,-5.198691
122.15,-5.141156
122.2,-5.182249
122.25,-5.242332
122.3,-5.338159
122.35,-5.420833
122.4,-5.416419
122.45,-5.458821
122.5,-5.53408
122.55,-5.634398
122.6,-5.537792
122.65,-5.520086
122.7,-5.493327
122.75,-5.411969
122.8,-5.378973
122.85,-5.373302
122.9,-5.44175
122.95,-5.366786
123,-5.297367
123.05,-5.363111
123.1,-5.496421
123.15,-5.699768
123.2,-5.871703
123.25,-5.983465
123.3,-5.866577
123.35,-5.711753
123.4,-5.731724
123.45,-5.747155
123.5,-5.612855
123.55,-5.505248
123.6,-5.521605
123.65,-5.556849
123.7,-5.570255
123.75,-5.718691
123.8,-5.688884
123.85,-5.635058
123.9,-5.566895
123.95,-5.558751
124,-5.626484
124.05,-5.599013
124.1,-5.505944
124.15,-5.362031
124.2,-5.528132
124.25,-5.597804
124.3,-5.729226
124.35,-5.958413
124.4,-6.063511
124.45,-5.868732
124.5,-5.821034
124.55,-5.873958
124.6,-5.894017
124.65,-5.83789
124.7,-5.782177
124.75,-5.709255
124.8,-5.570281
124.85,-5.631141
124.9,-5.687678
124.95,-5.728514
125,-5.630714
125.05,-5.506988
125.1,-5.353801
125.15,-5.280071
125.2,-5.346128
125.25,-5.525522
125.3,-5.714894
125.35,-5.860901
125.4,-5.981387
125.45,-5.913006
125.5,-5.90554
125.55,-5.650166
125.6,-5.458944
125.65,-5.357429
125.7,-5.48917
125.75,-5.791153
125.8,-6.013155
125.85,-6.145156
125.9,-6.064025
125.95,-5.944499
126,-5.710922
126.05,-5.505921
126.1,-5.252636
126.15,-5.204636
126.2,-5.37383
126.25,-5.62641
126.3,-5.828002
126.35,-5.860109
126.4,-5.707851
126.45,-5.531477
126.5,-5.571609
126.55,-5.678928
126.6,-5.965761
126.65,-6.083452
126.7,-6.163758
126.75,-6.103002
126.8,-6.097919
126.85,-6.03002
126.9,-5.981424
126.95,-5.966153
127,-5.864871
127.05,-5.812596
127.1,-5.907588
127.15,-5.782881
127.2,-5.452979
127.25,-5.358596
127.3,-5.407278
127.35,-5.522617
127.4,-5.648785
127.45,-5.822349
127.5,-5.771452
127.55,-5.755153
127.6,-5.834562
127.65,-5.869831
127.7,-5.83062
127.75,-5.814752
127.8,-5.882659
127.85,-5.935729
127.9,-6.036375
127.95,-5.979893
128,-5.840185
128.05,-5.893322
128.1,-6.020277
128.15,-6.205749
128.2,-6.30213
128.25,-6.32148
128.3,-6.097396
128.35,-5.886472
128.4,-5.85162
128.45,-5.873543
128.5,-5.709447
128.55,-5.535035
128.6,-5.524367
128.65,-5.535244
128.7,-5.622581
128.75,-5.770897
128.8,-5.822924
128.85,-5.783064
128.9,-5.818213
128.95,-5.990287
129,-6.10912
129.05,-6.201987
129.1,-6.221311
129.15,-6.097007
129.2,-6.134799
129.25,-6.144357
129.3,-6.296873
129.35,-6.395514
129.4,-6.348316
129.45,-6.234549
129.5,-6.144307
129.55,-6.174328
129.6,-6.157434
129.65,-6.229984
129.7,-6.167911
129.75,-6.109634
129.8,-6.056743
129.85,-6.063965
129.9,-6.10363
129.95,-6.130499
130,-6.111381
130.05,-6.092131
130.1,-6.034967
130.15,-5.946973
130.2,-5.982194
130.25,-6.035432
130.3,-6.263106
130.35,-6.274396
130.4,-6.26283
130.45,-6.236115
130.5,-6.236115
130.55,-6.236115
130.6,-6.236115
130.65,-6.236115
130.7,-6.236115
130.75,-6.236115
130.8,-6.236115
130.85,-6.236115
130.9,-6.236115
130.95,-6.236115
131,-6.236115
131.05,-6.236115
131.1,-6.236115
131.15,-6.236115
131.2,-6.236115
131.25,-6.236115
131.3,-6.236115
131.35,-6.236115
131.4,-6.236115
131.45,-6.236115
131.5,-6.236115
131.55,-6.236115
131.6,-6.236115
131.65,-6.236115
131.7,-6.236115
131.75,-6.236115
131.8,-6.236115
131.85,-6.236115
131.9,-6.236115
131.95,-6.236115
132,-6.236115
132.05,-6.236115
132.1,-6.236115
132.15,-6.236115
132.2,-6.236115
132.25,-6.236115
132.3,-6.236115
132.35,-6.236115
132.4,-6.236115
132.45,-6.236115
132.5,-6.236115
132.55,-6.236115
132.6,-6.236115
132.65,-6.236115
132.7,-6.236115
132.75,-6.236115
132.8,-6.236115
132.85,-6.236115
132.9,-6.236115
132.95,-6.236115
133,-6.236115
133.05,-6.236115
133.1,-6.236115
133.15,-6.236115
133.2,-6.236115
133.25,-6.236115
133.3,-6.236115
133.35,-6.236115
133.4,-6.236115
133.45,-6.236115
133.5,-6.236115
133.55,-6.236115
133.6,-6.236115
133.65,-6.236115
133.7,-6.236115
133.75,-6.236115
133.8,-6.236115
133.85,-6.236115
133.9,-6.236115
133.95,-6.236115
134,-6.236115
134.05,-6.236115
134.1,-6.236115
134.15,-6.236115
134.2,-6.236115
134.25,-6.236115
134.3,-6.236115
134.35,-6.236115
134.4,-6.236115
134.45,-6.236115
134.5,-6.236115
134.55,-6.236115
134.6,-6.236115
134.65,-6.236115
134.7,-6.236115
134.75,-6.236115
134.8,-6.236115
134.85,-6.236115
134.9,-6.236115
134.95,-6.236115
135,-6.236115
135.05,-6.236115
135.1,-6.236115
135.15,-6.236115
135.2,-6.236115
135.25,-6.236115
135.3,-6.236115
135.35,-6.236115
135.4,-6.236115
135.45,-6.236115
135.5,-6.236115
135.55,-6.236115
135.6,-6.236115
135.65,-6.236115
135.7,-6.236115
135.75,-6.236115
135.8,-6.236115
135.85,-6.236115
135.9,-6.236115
135.95,-6.236115
136,-6.236115
136.05,-6.236115
136.1,-6.236115
136.15,-6.236115
136.2,-6.236115
136.25,-6.236115
136.3,-6.236115
136.35,-6.236115
136.4,-6.236115
136.45,-6.236115
136.5,-6.236115
136.55,-6.236115
136.6,-6.236115
136.65,-6.236115
136.7,-6.236115
136.75,-6.236115
136.8,-6.236115
136.85,-6.236115
136.9,-6.236115
136.95,-6.236115
137,-6.236115
137.05,-6.236115
137.1,-6.236115
137.15,-6.236115
137.2,-6.236115
137.25,-6.236115
137.3,-6.236115
137.35,-6.236115
137.4,-6.236115
137.45,-6.236115
137.5,-6.236115
137.55,-6.236115
137.6,-6.236115
137.65,-6.236115
137.7,-6.236115
137.75,-6.236115
137.8,-6.236115
137.85,-6.236115
137.9,-6.236115
137.95,-6.236115
138,-6.236115
 
Alignment,On
